File: XRD/Activation ramp/2024-07-27_002_Ru-CGO-ex_Activtation_ramp_000002_data_000130.dat
# == pyFAI calibration ==
# Distance Sample to Detector: 0.4 m
# PONI: 9.750e-02, 1.135e-01 m
# Rotations: -0.000175 0.000000 -0.000000 rad
#
# == Fit2d calibration ==
# Distance Sample-beamCenter: 400.000 mm
# Center: x=1514.000, y=1300.000 pix
# Tilt: 0.010 deg  TiltPlanRot: 0.010 deg
#
# Detector Detector	 Spline= None	 PixelSize= 7.500e-05, 7.500e-05 m
#    Detector has a mask: False
#    Detector has a dark current: False
#    detector has a flat field: False
#
# Wavelength: 6.888e-11 m
# Mask applied: user provided
# Dark current applied: False
# Flat field applied: False
# Polarization factor: 0.99
# Normalization factor: 1.0
# --> /home/myspot/data/2024_07_Rosario/Ru-CGO-ex/2024-07-27_002_Ru-CGO-ex_Activtation_ramp_000002_data_000130.dat
#       q_nm^-1             I
  2.003187e-02    0.000000e+00
  1.311609e-01    5.039473e-02
  2.422899e-01    3.839773e-02
  3.534189e-01    4.132739e-02
  4.645479e-01    2.786201e-02
  5.756770e-01    2.331090e-02
  6.868060e-01    2.205343e-02
  7.979350e-01    1.124821e-01
  9.090640e-01    5.649285e-01
  1.020193e+00    1.227454e+00
  1.131322e+00    1.455432e+00
  1.242451e+00    2.195642e+00
  1.353580e+00    2.455511e+00
  1.464709e+00    2.691550e+00
  1.575838e+00    2.792119e+00
  1.686967e+00    2.744705e+00
  1.798096e+00    2.698425e+00
  1.909225e+00    2.653224e+00
  2.020354e+00    2.830553e+00
  2.131483e+00    2.607882e+00
  2.242612e+00    2.755823e+00
  2.353741e+00    2.789421e+00
  2.464870e+00    2.729403e+00
  2.575999e+00    2.821266e+00
  2.687128e+00    2.823415e+00
  2.798257e+00    2.815495e+00
  2.909386e+00    2.738925e+00
  3.020515e+00    2.851740e+00
  3.131644e+00    2.866792e+00
  3.242773e+00    2.931619e+00
  3.353902e+00    2.894857e+00
  3.465031e+00    2.983430e+00
  3.576160e+00    2.985023e+00
  3.687289e+00    2.930282e+00
  3.798418e+00    3.048613e+00
  3.909547e+00    2.894958e+00
  4.020676e+00    2.971255e+00
  4.131806e+00    3.042275e+00
  4.242935e+00    3.049105e+00
  4.354064e+00    3.046114e+00
  4.465193e+00    3.081394e+00
  4.576322e+00    3.078294e+00
  4.687451e+00    3.066198e+00
  4.798580e+00    3.115310e+00
  4.909709e+00    3.086709e+00
  5.020838e+00    3.128700e+00
  5.131967e+00    3.080901e+00
  5.243096e+00    3.089221e+00
  5.354225e+00    3.120226e+00
  5.465354e+00    3.148601e+00
  5.576483e+00    3.035828e+00
  5.687612e+00    3.011620e+00
  5.798741e+00    2.962748e+00
  5.909870e+00    3.017109e+00
  6.020999e+00    2.917770e+00
  6.132128e+00    2.986859e+00
  6.243257e+00    3.048613e+00
  6.354386e+00    2.982572e+00
  6.465515e+00    2.955612e+00
  6.576644e+00    3.005499e+00
  6.687773e+00    2.908516e+00
  6.798902e+00    2.975992e+00
  6.910031e+00    3.005193e+00
  7.021160e+00    3.032333e+00
  7.132289e+00    2.953292e+00
  7.243418e+00    2.955162e+00
  7.354547e+00    2.908504e+00
  7.465676e+00    2.947121e+00
  7.576805e+00    2.918531e+00
  7.687934e+00    2.869935e+00
  7.799063e+00    2.983678e+00
  7.910192e+00    2.942999e+00
  8.021321e+00    2.951982e+00
  8.132450e+00    2.947977e+00
  8.243579e+00    2.943688e+00
  8.354708e+00    2.840351e+00
  8.465837e+00    2.869769e+00
  8.576966e+00    2.835360e+00
  8.688095e+00    2.774044e+00
  8.799224e+00    2.794594e+00
  8.910353e+00    2.796757e+00
  9.021482e+00    2.776734e+00
  9.132611e+00    2.822452e+00
  9.243740e+00    2.795496e+00
  9.354869e+00    2.708129e+00
  9.465998e+00    2.729032e+00
  9.577127e+00    2.756198e+00
  9.688256e+00    2.758731e+00
  9.799385e+00    2.643380e+00
  9.910514e+00    2.737171e+00
  1.002164e+01    2.647413e+00
  1.013277e+01    2.668416e+00
  1.024390e+01    2.580936e+00
  1.035503e+01    2.631988e+00
  1.046616e+01    2.542012e+00
  1.057729e+01    2.507398e+00
  1.068842e+01    2.550754e+00
  1.079955e+01    2.482155e+00
  1.091068e+01    2.505503e+00
  1.102180e+01    2.471737e+00
  1.113293e+01    2.456089e+00
  1.124406e+01    2.402567e+00
  1.135519e+01    2.402094e+00
  1.146632e+01    2.376519e+00
  1.157745e+01    2.411605e+00
  1.168858e+01    2.345713e+00
  1.179971e+01    2.307130e+00
  1.191084e+01    2.349500e+00
  1.202197e+01    2.331030e+00
  1.213309e+01    2.305244e+00
  1.224422e+01    2.302856e+00
  1.235535e+01    2.266925e+00
  1.246648e+01    2.308040e+00
  1.257761e+01    2.359018e+00
  1.268874e+01    2.415735e+00
  1.279987e+01    2.601910e+00
  1.291100e+01    3.280259e+00
  1.302213e+01    6.097676e+00
  1.313326e+01    1.448395e+01
  1.324438e+01    1.194486e+01
  1.335551e+01    4.384827e+00
  1.346664e+01    2.846320e+00
  1.357777e+01    2.403309e+00
  1.368890e+01    2.222153e+00
  1.380003e+01    2.127339e+00
  1.391116e+01    2.071790e+00
  1.402229e+01    2.022944e+00
  1.413342e+01    2.030502e+00
  1.424455e+01    1.940178e+00
  1.435568e+01    1.968163e+00
  1.446680e+01    1.910534e+00
  1.457793e+01    1.851078e+00
  1.468906e+01    1.925689e+00
  1.480019e+01    1.904500e+00
  1.491132e+01    1.936510e+00
  1.502245e+01    2.166223e+00
  1.513358e+01    3.372149e+00
  1.524471e+01    5.686504e+00
  1.535584e+01    3.861249e+00
  1.546697e+01    2.233076e+00
  1.557809e+01    1.863109e+00
  1.568922e+01    1.768880e+00
  1.580035e+01    1.716699e+00
  1.591148e+01    1.667904e+00
  1.602261e+01    1.626469e+00
  1.613374e+01    1.553222e+00
  1.624487e+01    1.599914e+00
  1.635600e+01    1.540962e+00
  1.646713e+01    1.527554e+00
  1.657826e+01    1.495962e+00
  1.668938e+01    1.469545e+00
  1.680051e+01    1.484890e+00
  1.691164e+01    1.486678e+00
  1.702277e+01    1.422604e+00
  1.713390e+01    1.407974e+00
  1.724503e+01    1.406524e+00
  1.735616e+01    1.364822e+00
  1.746729e+01    1.355395e+00
  1.757842e+01    1.366457e+00
  1.768955e+01    1.345115e+00
  1.780067e+01    1.349213e+00
  1.791180e+01    1.308045e+00
  1.802293e+01    1.284710e+00
  1.813406e+01    1.283482e+00
  1.824519e+01    1.257024e+00
  1.835632e+01    1.264144e+00
  1.846745e+01    1.242824e+00
  1.857858e+01    1.235035e+00
  1.868971e+01    1.216314e+00
  1.880084e+01    1.217957e+00
  1.891196e+01    1.184307e+00
  1.902309e+01    1.203031e+00
  1.913422e+01    1.191176e+00
  1.924535e+01    1.189424e+00
  1.935648e+01    1.188027e+00
  1.946761e+01    1.150459e+00
  1.957874e+01    1.145681e+00
  1.968987e+01    1.138101e+00
  1.980100e+01    1.125522e+00
  1.991213e+01    1.114536e+00
  2.002325e+01    1.101124e+00
  2.013438e+01    1.079710e+00
  2.024551e+01    1.091978e+00
  2.035664e+01    1.089852e+00
  2.046777e+01    1.081236e+00
  2.057890e+01    1.080907e+00
  2.069003e+01    1.090327e+00
  2.080116e+01    1.086169e+00
  2.091229e+01    1.051162e+00
  2.102342e+01    1.079573e+00
  2.113455e+01    1.067458e+00
  2.124567e+01    1.091627e+00
  2.135680e+01    1.157007e+00
  2.146793e+01    1.232911e+00
  2.157906e+01    1.464348e+00
  2.169019e+01    2.265539e+00
  2.180132e+01    5.466913e+00
  2.191245e+01    9.470239e+00
  2.202358e+01    3.949358e+00
  2.213471e+01    1.823930e+00
  2.224584e+01    1.307672e+00
  2.235696e+01    1.132688e+00
  2.246809e+01    1.027890e+00
  2.257922e+01    9.892457e-01
  2.269035e+01    9.452512e-01
  2.280148e+01    9.316176e-01
  2.291261e+01    9.187490e-01
  2.302374e+01    8.880907e-01
  2.313487e+01    8.905043e-01
  2.324600e+01    8.738108e-01
  2.335713e+01    8.477025e-01
  2.346825e+01    8.411381e-01
  2.357938e+01    8.364043e-01
  2.369051e+01    8.345339e-01
  2.380164e+01    8.015798e-01
  2.391277e+01    7.948477e-01
  2.402390e+01    7.897537e-01
  2.413503e+01    7.618711e-01
  2.424616e+01    7.864386e-01
  2.435729e+01    7.875571e-01
  2.446842e+01    7.694104e-01
  2.457954e+01    7.933490e-01
  2.469067e+01    7.734701e-01
  2.480180e+01    7.912986e-01
  2.491293e+01    7.890744e-01
  2.502406e+01    7.754179e-01
  2.513519e+01    8.119484e-01
  2.524632e+01    8.272935e-01
  2.535745e+01    8.789533e-01
  2.546858e+01    9.229980e-01
  2.557971e+01    1.067420e+00
  2.569083e+01    1.377821e+00
  2.580196e+01    2.556570e+00
  2.591309e+01    6.254750e+00
  2.602422e+01    6.281785e+00
  2.613535e+01    2.289857e+00
  2.624648e+01    1.306462e+00
  2.635761e+01    1.080751e+00
  2.646874e+01    9.498382e-01
  2.657987e+01    9.078130e-01
  2.669100e+01    8.818768e-01
  2.680212e+01    8.928707e-01
  2.691325e+01    8.845937e-01
  2.702438e+01    1.043511e+00
  2.713551e+01    1.628633e+00
  2.724664e+01    2.272865e+00
  2.735777e+01    1.294129e+00
  2.746890e+01    9.501668e-01
  2.758003e+01    8.437080e-01
  2.769116e+01    8.291648e-01
  2.780229e+01    8.076805e-01
  2.791342e+01    8.080346e-01
  2.802454e+01    7.897385e-01
  2.813567e+01    8.046681e-01
  2.824680e+01    7.618580e-01
  2.835793e+01    7.690694e-01
  2.846906e+01    7.657761e-01
  2.858019e+01    7.551722e-01
  2.869132e+01    7.275580e-01
  2.880245e+01    7.323208e-01
  2.891358e+01    7.462342e-01
  2.902471e+01    7.311931e-01
  2.913583e+01    7.202902e-01
  2.924696e+01    7.259290e-01
  2.935809e+01    7.046145e-01
  2.946922e+01    7.029677e-01
  2.958035e+01    7.247891e-01
  2.969148e+01    7.328370e-01
  2.980261e+01    7.143918e-01
  2.991374e+01    7.019404e-01
  3.002487e+01    7.203490e-01
  3.013600e+01    7.149917e-01
  3.024712e+01    7.098231e-01
  3.035825e+01    6.971586e-01
  3.046938e+01    7.075104e-01
  3.058051e+01    7.117493e-01
  3.069164e+01    6.975650e-01
  3.080277e+01    6.886128e-01
  3.091390e+01    7.204044e-01
  3.102503e+01    7.093258e-01
  3.113616e+01    7.153296e-01
  3.124729e+01    7.372937e-01
  3.135841e+01    7.574202e-01
  3.146954e+01    7.550861e-01
  3.158067e+01    8.015049e-01
  3.169180e+01    9.005561e-01
  3.180293e+01    1.345538e+00
  3.191406e+01    2.237014e+00
  3.202519e+01    1.425799e+00
  3.213632e+01    9.073091e-01
  3.224745e+01    7.780592e-01
  3.235858e+01    7.427278e-01
  3.246970e+01    6.944994e-01
  3.254908e+01    7.124755e-01