File: XRD/Activation ramp/2024-07-27_002_Ru-CGO-ex_Activtation_ramp_000002_data_000146.dat
# == pyFAI calibration ==
# Distance Sample to Detector: 0.4 m
# PONI: 9.750e-02, 1.135e-01 m
# Rotations: -0.000175 0.000000 -0.000000 rad
#
# == Fit2d calibration ==
# Distance Sample-beamCenter: 400.000 mm
# Center: x=1514.000, y=1300.000 pix
# Tilt: 0.010 deg  TiltPlanRot: 0.010 deg
#
# Detector Detector	 Spline= None	 PixelSize= 7.500e-05, 7.500e-05 m
#    Detector has a mask: False
#    Detector has a dark current: False
#    detector has a flat field: False
#
# Wavelength: 6.888e-11 m
# Mask applied: user provided
# Dark current applied: False
# Flat field applied: False
# Polarization factor: 0.99
# Normalization factor: 1.0
# --> /home/myspot/data/2024_07_Rosario/Ru-CGO-ex/2024-07-27_002_Ru-CGO-ex_Activtation_ramp_000002_data_000146.dat
#       q_nm^-1             I
  2.003187e-02    0.000000e+00
  1.311609e-01    1.066808e-01
  2.422899e-01    2.053316e-02
  3.534189e-01    3.555739e-02
  4.645479e-01    3.551297e-02
  5.756770e-01    5.097367e-02
  6.868060e-01    5.166695e-02
  7.979350e-01    1.489572e-01
  9.090640e-01    6.104754e-01
  1.020193e+00    1.086412e+00
  1.131322e+00    1.395185e+00
  1.242451e+00    1.948715e+00
  1.353580e+00    2.594486e+00
  1.464709e+00    2.728696e+00
  1.575838e+00    2.874365e+00
  1.686967e+00    2.809468e+00
  1.798096e+00    2.721161e+00
  1.909225e+00    2.749470e+00
  2.020354e+00    2.604304e+00
  2.131483e+00    2.780787e+00
  2.242612e+00    2.763949e+00
  2.353741e+00    2.605288e+00
  2.464870e+00    2.750860e+00
  2.575999e+00    2.730822e+00
  2.687128e+00    2.790534e+00
  2.798257e+00    2.804847e+00
  2.909386e+00    2.847596e+00
  3.020515e+00    2.912573e+00
  3.131644e+00    2.921949e+00
  3.242773e+00    2.937932e+00
  3.353902e+00    2.893292e+00
  3.465031e+00    2.931602e+00
  3.576160e+00    2.930412e+00
  3.687289e+00    2.905463e+00
  3.798418e+00    2.930789e+00
  3.909547e+00    3.063802e+00
  4.020676e+00    3.004524e+00
  4.131806e+00    2.952056e+00
  4.242935e+00    2.934726e+00
  4.354064e+00    3.031274e+00
  4.465193e+00    2.958122e+00
  4.576322e+00    3.032886e+00
  4.687451e+00    3.100075e+00
  4.798580e+00    3.121410e+00
  4.909709e+00    3.230380e+00
  5.020838e+00    3.061634e+00
  5.131967e+00    3.108506e+00
  5.243096e+00    3.141810e+00
  5.354225e+00    3.104375e+00
  5.465354e+00    3.070726e+00
  5.576483e+00    3.078577e+00
  5.687612e+00    3.100871e+00
  5.798741e+00    3.101304e+00
  5.909870e+00    2.982985e+00
  6.020999e+00    3.006483e+00
  6.132128e+00    3.182134e+00
  6.243257e+00    3.046010e+00
  6.354386e+00    3.000391e+00
  6.465515e+00    3.050269e+00
  6.576644e+00    2.994136e+00
  6.687773e+00    3.061874e+00
  6.798902e+00    3.095879e+00
  6.910031e+00    2.998958e+00
  7.021160e+00    3.036122e+00
  7.132289e+00    2.988641e+00
  7.243418e+00    2.943072e+00
  7.354547e+00    2.995137e+00
  7.465676e+00    2.957268e+00
  7.576805e+00    2.988271e+00
  7.687934e+00    2.995714e+00
  7.799063e+00    2.978237e+00
  7.910192e+00    2.975077e+00
  8.021321e+00    2.961585e+00
  8.132450e+00    2.940760e+00
  8.243579e+00    2.978698e+00
  8.354708e+00    2.850998e+00
  8.465837e+00    2.898413e+00
  8.576966e+00    2.886567e+00
  8.688095e+00    2.866162e+00
  8.799224e+00    2.803000e+00
  8.910353e+00    2.816490e+00
  9.021482e+00    2.811889e+00
  9.132611e+00    2.799009e+00
  9.243740e+00    2.846357e+00
  9.354869e+00    2.706081e+00
  9.465998e+00    2.756442e+00
  9.577127e+00    2.755359e+00
  9.688256e+00    2.740490e+00
  9.799385e+00    2.669146e+00
  9.910514e+00    2.701434e+00
  1.002164e+01    2.605016e+00
  1.013277e+01    2.660416e+00
  1.024390e+01    2.615858e+00
  1.035503e+01    2.635778e+00
  1.046616e+01    2.595084e+00
  1.057729e+01    2.570819e+00
  1.068842e+01    2.549573e+00
  1.079955e+01    2.542235e+00
  1.091068e+01    2.472459e+00
  1.102180e+01    2.494917e+00
  1.113293e+01    2.486212e+00
  1.124406e+01    2.488487e+00
  1.135519e+01    2.438591e+00
  1.146632e+01    2.374916e+00
  1.157745e+01    2.363052e+00
  1.168858e+01    2.403957e+00
  1.179971e+01    2.371258e+00
  1.191084e+01    2.347980e+00
  1.202197e+01    2.294473e+00
  1.213309e+01    2.306775e+00
  1.224422e+01    2.319082e+00
  1.235535e+01    2.327765e+00
  1.246648e+01    2.323833e+00
  1.257761e+01    2.420506e+00
  1.268874e+01    2.463824e+00
  1.279987e+01    2.648970e+00
  1.291100e+01    3.296012e+00
  1.302213e+01    6.128280e+00
  1.313326e+01    1.441122e+01
  1.324438e+01    1.143815e+01
  1.335551e+01    4.254593e+00
  1.346664e+01    2.857144e+00
  1.357777e+01    2.399980e+00
  1.368890e+01    2.199632e+00
  1.380003e+01    2.154984e+00
  1.391116e+01    2.136335e+00
  1.402229e+01    2.081023e+00
  1.413342e+01    1.998984e+00
  1.424455e+01    2.007990e+00
  1.435568e+01    1.943393e+00
  1.446680e+01    1.948958e+00
  1.457793e+01    1.893070e+00
  1.468906e+01    1.929712e+00
  1.480019e+01    1.887003e+00
  1.491132e+01    1.996814e+00
  1.502245e+01    2.247672e+00
  1.513358e+01    3.455377e+00
  1.524471e+01    5.559994e+00
  1.535584e+01    3.725185e+00
  1.546697e+01    2.207299e+00
  1.557809e+01    1.870731e+00
  1.568922e+01    1.705966e+00
  1.580035e+01    1.674146e+00
  1.591148e+01    1.636735e+00
  1.602261e+01    1.574242e+00
  1.613374e+01    1.566309e+00
  1.624487e+01    1.521721e+00
  1.635600e+01    1.529875e+00
  1.646713e+01    1.522538e+00
  1.657826e+01    1.486164e+00
  1.668938e+01    1.490955e+00
  1.680051e+01    1.461060e+00
  1.691164e+01    1.430958e+00
  1.702277e+01    1.469298e+00
  1.713390e+01    1.392441e+00
  1.724503e+01    1.412641e+00
  1.735616e+01    1.398353e+00
  1.746729e+01    1.335522e+00
  1.757842e+01    1.336227e+00
  1.768955e+01    1.336053e+00
  1.780067e+01    1.326682e+00
  1.791180e+01    1.305409e+00
  1.802293e+01    1.312426e+00
  1.813406e+01    1.284097e+00
  1.824519e+01    1.295960e+00
  1.835632e+01    1.257773e+00
  1.846745e+01    1.241537e+00
  1.857858e+01    1.236433e+00
  1.868971e+01    1.226388e+00
  1.880084e+01    1.211647e+00
  1.891196e+01    1.237113e+00
  1.902309e+01    1.215134e+00
  1.913422e+01    1.170115e+00
  1.924535e+01    1.193384e+00
  1.935648e+01    1.176581e+00
  1.946761e+01    1.161249e+00
  1.957874e+01    1.135475e+00
  1.968987e+01    1.126136e+00
  1.980100e+01    1.118227e+00
  1.991213e+01    1.156053e+00
  2.002325e+01    1.092814e+00
  2.013438e+01    1.115410e+00
  2.024551e+01    1.082674e+00
  2.035664e+01    1.088656e+00
  2.046777e+01    1.088530e+00
  2.057890e+01    1.066164e+00
  2.069003e+01    1.073977e+00
  2.080116e+01    1.071997e+00
  2.091229e+01    1.073366e+00
  2.102342e+01    1.072080e+00
  2.113455e+01    1.077841e+00
  2.124567e+01    1.119765e+00
  2.135680e+01    1.129428e+00
  2.146793e+01    1.224940e+00
  2.157906e+01    1.457742e+00
  2.169019e+01    2.315760e+00
  2.180132e+01    5.471615e+00
  2.191245e+01    9.160316e+00
  2.202358e+01    3.736598e+00
  2.213471e+01    1.778118e+00
  2.224584e+01    1.285883e+00
  2.235696e+01    1.119764e+00
  2.246809e+01    1.025900e+00
  2.257922e+01    9.832807e-01
  2.269035e+01    9.679104e-01
  2.280148e+01    9.529132e-01
  2.291261e+01    9.178962e-01
  2.302374e+01    8.976310e-01
  2.313487e+01    8.900020e-01
  2.324600e+01    8.777586e-01
  2.335713e+01    8.566328e-01
  2.346825e+01    8.457400e-01
  2.357938e+01    8.440518e-01
  2.369051e+01    8.528686e-01
  2.380164e+01    8.187539e-01
  2.391277e+01    7.867336e-01
  2.402390e+01    7.884909e-01
  2.413503e+01    7.880661e-01
  2.424616e+01    7.743962e-01
  2.435729e+01    7.971129e-01
  2.446842e+01    8.072096e-01
  2.457954e+01    7.832382e-01
  2.469067e+01    7.873019e-01
  2.480180e+01    8.021662e-01
  2.491293e+01    8.190050e-01
  2.502406e+01    8.044730e-01
  2.513519e+01    8.116691e-01
  2.524632e+01    8.552610e-01
  2.535745e+01    8.922086e-01
  2.546858e+01    9.582062e-01
  2.557971e+01    1.072104e+00
  2.569083e+01    1.401276e+00
  2.580196e+01    2.640833e+00
  2.591309e+01    6.260088e+00
  2.602422e+01    5.947891e+00
  2.613535e+01    2.217545e+00
  2.624648e+01    1.288506e+00
  2.635761e+01    1.025389e+00
  2.646874e+01    9.247442e-01
  2.657987e+01    8.851896e-01
  2.669100e+01    8.958922e-01
  2.680212e+01    8.794991e-01
  2.691325e+01    9.217146e-01
  2.702438e+01    1.069852e+00
  2.713551e+01    1.605931e+00
  2.724664e+01    2.205858e+00
  2.735777e+01    1.273570e+00
  2.746890e+01    9.524671e-01
  2.758003e+01    8.671488e-01
  2.769116e+01    8.231708e-01
  2.780229e+01    8.128851e-01
  2.791342e+01    7.945009e-01
  2.802454e+01    7.711060e-01
  2.813567e+01    8.061733e-01
  2.824680e+01    7.634441e-01
  2.835793e+01    7.424133e-01
  2.846906e+01    7.419933e-01
  2.858019e+01    7.506047e-01
  2.869132e+01    7.388202e-01
  2.880245e+01    7.382923e-01
  2.891358e+01    7.315047e-01
  2.902471e+01    7.216494e-01
  2.913583e+01    7.405221e-01
  2.924696e+01    7.021261e-01
  2.935809e+01    7.213511e-01
  2.946922e+01    7.332149e-01
  2.958035e+01    7.270029e-01
  2.969148e+01    7.153352e-01
  2.980261e+01    7.133420e-01
  2.991374e+01    7.068120e-01
  3.002487e+01    7.210433e-01
  3.013600e+01    7.044255e-01
  3.024712e+01    7.026491e-01
  3.035825e+01    7.135959e-01
  3.046938e+01    7.051706e-01
  3.058051e+01    7.232213e-01
  3.069164e+01    7.240420e-01
  3.080277e+01    7.186308e-01
  3.091390e+01    7.181473e-01
  3.102503e+01    7.111269e-01
  3.113616e+01    7.226363e-01
  3.124729e+01    7.351411e-01
  3.135841e+01    7.150454e-01
  3.146954e+01    7.560104e-01
  3.158067e+01    7.825603e-01
  3.169180e+01    9.423184e-01
  3.180293e+01    1.387072e+00
  3.191406e+01    2.193153e+00
  3.202519e+01    1.392573e+00
  3.213632e+01    8.640022e-01
  3.224745e+01    7.623150e-01
  3.235858e+01    7.619348e-01
  3.246970e+01    7.219437e-01
  3.254908e+01    7.086017e-01