File: XRD/Activation ramp/2024-07-27_002_Ru-CGO-ex_Activtation_ramp_000002_data_000122.dat
# == pyFAI calibration ==
# Distance Sample to Detector: 0.4 m
# PONI: 9.750e-02, 1.135e-01 m
# Rotations: -0.000175 0.000000 -0.000000 rad
#
# == Fit2d calibration ==
# Distance Sample-beamCenter: 400.000 mm
# Center: x=1514.000, y=1300.000 pix
# Tilt: 0.010 deg  TiltPlanRot: 0.010 deg
#
# Detector Detector	 Spline= None	 PixelSize= 7.500e-05, 7.500e-05 m
#    Detector has a mask: False
#    Detector has a dark current: False
#    detector has a flat field: False
#
# Wavelength: 6.888e-11 m
# Mask applied: user provided
# Dark current applied: False
# Flat field applied: False
# Polarization factor: 0.99
# Normalization factor: 1.0
# --> /home/myspot/data/2024_07_Rosario/Ru-CGO-ex/2024-07-27_002_Ru-CGO-ex_Activtation_ramp_000002_data_000122.dat
#       q_nm^-1             I
  2.003187e-02    0.000000e+00
  1.311609e-01    5.764125e-02
  2.422899e-01    8.925681e-02
  3.534189e-01    2.989828e-02
  4.645479e-01    3.060769e-02
  5.756770e-01    5.793599e-02
  6.868060e-01    4.534475e-02
  7.979350e-01    1.528550e-01
  9.090640e-01    5.723127e-01
  1.020193e+00    1.085830e+00
  1.131322e+00    1.375048e+00
  1.242451e+00    2.270436e+00
  1.353580e+00    2.542460e+00
  1.464709e+00    2.813092e+00
  1.575838e+00    2.902303e+00
  1.686967e+00    2.812375e+00
  1.798096e+00    2.678768e+00
  1.909225e+00    2.677987e+00
  2.020354e+00    2.758893e+00
  2.131483e+00    2.576069e+00
  2.242612e+00    2.747106e+00
  2.353741e+00    2.700903e+00
  2.464870e+00    2.681866e+00
  2.575999e+00    2.654259e+00
  2.687128e+00    2.794870e+00
  2.798257e+00    2.749464e+00
  2.909386e+00    2.828126e+00
  3.020515e+00    2.891309e+00
  3.131644e+00    2.785696e+00
  3.242773e+00    2.912843e+00
  3.353902e+00    2.857891e+00
  3.465031e+00    2.906069e+00
  3.576160e+00    3.024100e+00
  3.687289e+00    2.891790e+00
  3.798418e+00    2.968828e+00
  3.909547e+00    3.030792e+00
  4.020676e+00    2.976291e+00
  4.131806e+00    2.883545e+00
  4.242935e+00    3.012263e+00
  4.354064e+00    2.976765e+00
  4.465193e+00    3.070025e+00
  4.576322e+00    3.049414e+00
  4.687451e+00    3.032778e+00
  4.798580e+00    3.048292e+00
  4.909709e+00    3.064482e+00
  5.020838e+00    3.131056e+00
  5.131967e+00    2.991269e+00
  5.243096e+00    3.110864e+00
  5.354225e+00    3.092262e+00
  5.465354e+00    3.124937e+00
  5.576483e+00    3.107630e+00
  5.687612e+00    3.013570e+00
  5.798741e+00    2.968534e+00
  5.909870e+00    2.961444e+00
  6.020999e+00    2.938563e+00
  6.132128e+00    3.113391e+00
  6.243257e+00    2.943797e+00
  6.354386e+00    2.987151e+00
  6.465515e+00    3.084785e+00
  6.576644e+00    2.953436e+00
  6.687773e+00    2.961265e+00
  6.798902e+00    3.028573e+00
  6.910031e+00    2.944419e+00
  7.021160e+00    3.029679e+00
  7.132289e+00    3.016958e+00
  7.243418e+00    2.944309e+00
  7.354547e+00    2.932074e+00
  7.465676e+00    2.931235e+00
  7.576805e+00    2.926124e+00
  7.687934e+00    2.905316e+00
  7.799063e+00    2.864147e+00
  7.910192e+00    2.906998e+00
  8.021321e+00    2.849997e+00
  8.132450e+00    2.925038e+00
  8.243579e+00    2.927851e+00
  8.354708e+00    2.847959e+00
  8.465837e+00    2.890917e+00
  8.576966e+00    2.753469e+00
  8.688095e+00    2.849101e+00
  8.799224e+00    2.828582e+00
  8.910353e+00    2.824755e+00
  9.021482e+00    2.781562e+00
  9.132611e+00    2.768684e+00
  9.243740e+00    2.731534e+00
  9.354869e+00    2.737846e+00
  9.465998e+00    2.670484e+00
  9.577127e+00    2.698950e+00
  9.688256e+00    2.708090e+00
  9.799385e+00    2.628670e+00
  9.910514e+00    2.630512e+00
  1.002164e+01    2.603776e+00
  1.013277e+01    2.621761e+00
  1.024390e+01    2.608706e+00
  1.035503e+01    2.594480e+00
  1.046616e+01    2.602825e+00
  1.057729e+01    2.574975e+00
  1.068842e+01    2.491326e+00
  1.079955e+01    2.451607e+00
  1.091068e+01    2.468326e+00
  1.102180e+01    2.425734e+00
  1.113293e+01    2.426488e+00
  1.124406e+01    2.409201e+00
  1.135519e+01    2.394136e+00
  1.146632e+01    2.343969e+00
  1.157745e+01    2.353639e+00
  1.168858e+01    2.381755e+00
  1.179971e+01    2.308582e+00
  1.191084e+01    2.290000e+00
  1.202197e+01    2.313360e+00
  1.213309e+01    2.350711e+00
  1.224422e+01    2.274167e+00
  1.235535e+01    2.266567e+00
  1.246648e+01    2.320299e+00
  1.257761e+01    2.330308e+00
  1.268874e+01    2.437258e+00
  1.279987e+01    2.612909e+00
  1.291100e+01    3.261853e+00
  1.302213e+01    6.036704e+00
  1.313326e+01    1.455941e+01
  1.324438e+01    1.198259e+01
  1.335551e+01    4.401583e+00
  1.346664e+01    2.847887e+00
  1.357777e+01    2.422448e+00
  1.368890e+01    2.220049e+00
  1.380003e+01    2.096355e+00
  1.391116e+01    2.036139e+00
  1.402229e+01    2.040408e+00
  1.413342e+01    2.022825e+00
  1.424455e+01    1.968761e+00
  1.435568e+01    1.927328e+00
  1.446680e+01    1.883402e+00
  1.457793e+01    1.848393e+00
  1.468906e+01    1.858186e+00
  1.480019e+01    1.835947e+00
  1.491132e+01    1.937963e+00
  1.502245e+01    2.200043e+00
  1.513358e+01    3.441062e+00
  1.524471e+01    5.639364e+00
  1.535584e+01    3.870394e+00
  1.546697e+01    2.202713e+00
  1.557809e+01    1.854170e+00
  1.568922e+01    1.743608e+00
  1.580035e+01    1.694864e+00
  1.591148e+01    1.622606e+00
  1.602261e+01    1.588597e+00
  1.613374e+01    1.575401e+00
  1.624487e+01    1.535849e+00
  1.635600e+01    1.500644e+00
  1.646713e+01    1.499819e+00
  1.657826e+01    1.485866e+00
  1.668938e+01    1.479553e+00
  1.680051e+01    1.444494e+00
  1.691164e+01    1.441043e+00
  1.702277e+01    1.416835e+00
  1.713390e+01    1.412630e+00
  1.724503e+01    1.387469e+00
  1.735616e+01    1.377294e+00
  1.746729e+01    1.333979e+00
  1.757842e+01    1.345150e+00
  1.768955e+01    1.346359e+00
  1.780067e+01    1.278221e+00
  1.791180e+01    1.294927e+00
  1.802293e+01    1.294782e+00
  1.813406e+01    1.295950e+00
  1.824519e+01    1.247871e+00
  1.835632e+01    1.229701e+00
  1.846745e+01    1.238335e+00
  1.857858e+01    1.215999e+00
  1.868971e+01    1.223110e+00
  1.880084e+01    1.177315e+00
  1.891196e+01    1.169814e+00
  1.902309e+01    1.172131e+00
  1.913422e+01    1.162468e+00
  1.924535e+01    1.158209e+00
  1.935648e+01    1.169821e+00
  1.946761e+01    1.155615e+00
  1.957874e+01    1.143732e+00
  1.968987e+01    1.120739e+00
  1.980100e+01    1.133458e+00
  1.991213e+01    1.090784e+00
  2.002325e+01    1.098257e+00
  2.013438e+01    1.086581e+00
  2.024551e+01    1.089767e+00
  2.035664e+01    1.066273e+00
  2.046777e+01    1.093227e+00
  2.057890e+01    1.078017e+00
  2.069003e+01    1.063697e+00
  2.080116e+01    1.073536e+00
  2.091229e+01    1.081347e+00
  2.102342e+01    1.062230e+00
  2.113455e+01    1.058537e+00
  2.124567e+01    1.086401e+00
  2.135680e+01    1.130364e+00
  2.146793e+01    1.220043e+00
  2.157906e+01    1.474648e+00
  2.169019e+01    2.277808e+00
  2.180132e+01    5.422375e+00
  2.191245e+01    9.531674e+00
  2.202358e+01    3.996629e+00
  2.213471e+01    1.838498e+00
  2.224584e+01    1.292662e+00
  2.235696e+01    1.095928e+00
  2.246809e+01    1.019304e+00
  2.257922e+01    9.993706e-01
  2.269035e+01    9.508755e-01
  2.280148e+01    9.335679e-01
  2.291261e+01    9.071183e-01
  2.302374e+01    9.027703e-01
  2.313487e+01    8.720027e-01
  2.324600e+01    8.525459e-01
  2.335713e+01    8.560645e-01
  2.346825e+01    8.438913e-01
  2.357938e+01    8.425155e-01
  2.369051e+01    8.202891e-01
  2.380164e+01    8.188738e-01
  2.391277e+01    8.084150e-01
  2.402390e+01    7.912513e-01
  2.413503e+01    7.770408e-01
  2.424616e+01    7.521766e-01
  2.435729e+01    7.612979e-01
  2.446842e+01    7.706519e-01
  2.457954e+01    7.960568e-01
  2.469067e+01    7.788227e-01
  2.480180e+01    7.890528e-01
  2.491293e+01    7.829579e-01
  2.502406e+01    7.908235e-01
  2.513519e+01    8.044431e-01
  2.524632e+01    8.451421e-01
  2.535745e+01    8.714999e-01
  2.546858e+01    9.243700e-01
  2.557971e+01    1.068598e+00
  2.569083e+01    1.358336e+00
  2.580196e+01    2.528384e+00
  2.591309e+01    6.209219e+00
  2.602422e+01    6.400721e+00
  2.613535e+01    2.345345e+00
  2.624648e+01    1.333423e+00
  2.635761e+01    1.057245e+00
  2.646874e+01    9.583293e-01
  2.657987e+01    8.869401e-01
  2.669100e+01    8.768664e-01
  2.680212e+01    9.023420e-01
  2.691325e+01    9.293386e-01
  2.702438e+01    1.055675e+00
  2.713551e+01    1.590056e+00
  2.724664e+01    2.268063e+00
  2.735777e+01    1.345049e+00
  2.746890e+01    9.515046e-01
  2.758003e+01    8.792512e-01
  2.769116e+01    8.348442e-01
  2.780229e+01    8.063351e-01
  2.791342e+01    8.003026e-01
  2.802454e+01    7.755786e-01
  2.813567e+01    7.696379e-01
  2.824680e+01    7.543563e-01
  2.835793e+01    7.348522e-01
  2.846906e+01    7.496858e-01
  2.858019e+01    7.419199e-01
  2.869132e+01    7.436376e-01
  2.880245e+01    7.429956e-01
  2.891358e+01    7.400974e-01
  2.902471e+01    7.146167e-01
  2.913583e+01    7.392813e-01
  2.924696e+01    7.187608e-01
  2.935809e+01    7.189890e-01
  2.946922e+01    7.070218e-01
  2.958035e+01    7.333811e-01
  2.969148e+01    7.075658e-01
  2.980261e+01    7.186875e-01
  2.991374e+01    7.155308e-01
  3.002487e+01    7.290214e-01
  3.013600e+01    6.824766e-01
  3.024712e+01    7.362546e-01
  3.035825e+01    7.090989e-01
  3.046938e+01    7.262086e-01
  3.058051e+01    7.278271e-01
  3.069164e+01    7.000162e-01
  3.080277e+01    7.147208e-01
  3.091390e+01    7.217319e-01
  3.102503e+01    7.262502e-01
  3.113616e+01    7.142576e-01
  3.124729e+01    7.170700e-01
  3.135841e+01    7.309652e-01
  3.146954e+01    7.423834e-01
  3.158067e+01    7.782032e-01
  3.169180e+01    9.107741e-01
  3.180293e+01    1.399093e+00
  3.191406e+01    2.222181e+00
  3.202519e+01    1.462720e+00
  3.213632e+01    9.315372e-01
  3.224745e+01    7.950136e-01
  3.235858e+01    7.258612e-01
  3.246970e+01    7.269854e-01
  3.254908e+01    7.188615e-01