File: XRD/Activation ramp/2024-07-27_002_Ru-CGO-ex_Activtation_ramp_000002_data_000170.dat
# == pyFAI calibration ==
# Distance Sample to Detector: 0.4 m
# PONI: 9.750e-02, 1.135e-01 m
# Rotations: -0.000175 0.000000 -0.000000 rad
#
# == Fit2d calibration ==
# Distance Sample-beamCenter: 400.000 mm
# Center: x=1514.000, y=1300.000 pix
# Tilt: 0.010 deg  TiltPlanRot: 0.010 deg
#
# Detector Detector	 Spline= None	 PixelSize= 7.500e-05, 7.500e-05 m
#    Detector has a mask: False
#    Detector has a dark current: False
#    detector has a flat field: False
#
# Wavelength: 6.888e-11 m
# Mask applied: user provided
# Dark current applied: False
# Flat field applied: False
# Polarization factor: 0.99
# Normalization factor: 1.0
# --> /home/myspot/data/2024_07_Rosario/Ru-CGO-ex/2024-07-27_002_Ru-CGO-ex_Activtation_ramp_000002_data_000170.dat
#       q_nm^-1             I
  2.003187e-02    0.000000e+00
  1.311609e-01    5.761034e-02
  2.422899e-01    0.000000e+00
  3.534189e-01    3.277565e-02
  4.645479e-01    4.927341e-02
  5.756770e-01    9.334354e-03
  6.868060e-01    4.047596e-02
  7.979350e-01    1.609230e-01
  9.090640e-01    5.854999e-01
  1.020193e+00    1.045710e+00
  1.131322e+00    1.440755e+00
  1.242451e+00    2.207087e+00
  1.353580e+00    2.560402e+00
  1.464709e+00    2.816800e+00
  1.575838e+00    2.961761e+00
  1.686967e+00    2.738687e+00
  1.798096e+00    2.700369e+00
  1.909225e+00    2.714926e+00
  2.020354e+00    2.794358e+00
  2.131483e+00    2.718342e+00
  2.242612e+00    2.672669e+00
  2.353741e+00    2.666113e+00
  2.464870e+00    2.840564e+00
  2.575999e+00    2.917631e+00
  2.687128e+00    2.796696e+00
  2.798257e+00    2.904460e+00
  2.909386e+00    2.917996e+00
  3.020515e+00    2.816443e+00
  3.131644e+00    2.849427e+00
  3.242773e+00    2.985634e+00
  3.353902e+00    2.904375e+00
  3.465031e+00    2.903464e+00
  3.576160e+00    2.986672e+00
  3.687289e+00    2.952714e+00
  3.798418e+00    2.987250e+00
  3.909547e+00    3.012531e+00
  4.020676e+00    3.055483e+00
  4.131806e+00    3.029229e+00
  4.242935e+00    3.153006e+00
  4.354064e+00    3.074460e+00
  4.465193e+00    3.111396e+00
  4.576322e+00    3.069517e+00
  4.687451e+00    3.057262e+00
  4.798580e+00    3.025964e+00
  4.909709e+00    3.120221e+00
  5.020838e+00    3.044721e+00
  5.131967e+00    3.110061e+00
  5.243096e+00    3.172297e+00
  5.354225e+00    3.154763e+00
  5.465354e+00    3.114298e+00
  5.576483e+00    3.162066e+00
  5.687612e+00    3.022655e+00
  5.798741e+00    3.069518e+00
  5.909870e+00    2.999665e+00
  6.020999e+00    3.046309e+00
  6.132128e+00    3.045979e+00
  6.243257e+00    3.008686e+00
  6.354386e+00    3.147979e+00
  6.465515e+00    2.986010e+00
  6.576644e+00    3.070023e+00
  6.687773e+00    3.138402e+00
  6.798902e+00    3.091249e+00
  6.910031e+00    3.023336e+00
  7.021160e+00    3.006636e+00
  7.132289e+00    3.024209e+00
  7.243418e+00    3.073695e+00
  7.354547e+00    3.057863e+00
  7.465676e+00    2.977037e+00
  7.576805e+00    3.011369e+00
  7.687934e+00    3.065959e+00
  7.799063e+00    2.950781e+00
  7.910192e+00    2.954224e+00
  8.021321e+00    2.956627e+00
  8.132450e+00    2.973327e+00
  8.243579e+00    2.915573e+00
  8.354708e+00    2.852168e+00
  8.465837e+00    2.913000e+00
  8.576966e+00    2.895757e+00
  8.688095e+00    2.858547e+00
  8.799224e+00    2.822433e+00
  8.910353e+00    2.845540e+00
  9.021482e+00    2.853946e+00
  9.132611e+00    2.790500e+00
  9.243740e+00    2.822960e+00
  9.354869e+00    2.800509e+00
  9.465998e+00    2.799207e+00
  9.577127e+00    2.841920e+00
  9.688256e+00    2.737828e+00
  9.799385e+00    2.743952e+00
  9.910514e+00    2.720700e+00
  1.002164e+01    2.694438e+00
  1.013277e+01    2.679780e+00
  1.024390e+01    2.664814e+00
  1.035503e+01    2.614190e+00
  1.046616e+01    2.632797e+00
  1.057729e+01    2.639958e+00
  1.068842e+01    2.550464e+00
  1.079955e+01    2.529479e+00
  1.091068e+01    2.585716e+00
  1.102180e+01    2.532207e+00
  1.113293e+01    2.488188e+00
  1.124406e+01    2.472821e+00
  1.135519e+01    2.431642e+00
  1.146632e+01    2.442945e+00
  1.157745e+01    2.395007e+00
  1.168858e+01    2.373594e+00
  1.179971e+01    2.380785e+00
  1.191084e+01    2.354177e+00
  1.202197e+01    2.335380e+00
  1.213309e+01    2.350632e+00
  1.224422e+01    2.358043e+00
  1.235535e+01    2.328412e+00
  1.246648e+01    2.335399e+00
  1.257761e+01    2.361693e+00
  1.268874e+01    2.459590e+00
  1.279987e+01    2.662121e+00
  1.291100e+01    3.309793e+00
  1.302213e+01    6.322351e+00
  1.313326e+01    1.433684e+01
  1.324438e+01    1.038619e+01
  1.335551e+01    4.092379e+00
  1.346664e+01    2.797158e+00
  1.357777e+01    2.450754e+00
  1.368890e+01    2.225729e+00
  1.380003e+01    2.174731e+00
  1.391116e+01    2.101874e+00
  1.402229e+01    2.058266e+00
  1.413342e+01    2.000297e+00
  1.424455e+01    1.968414e+00
  1.435568e+01    1.957968e+00
  1.446680e+01    1.930340e+00
  1.457793e+01    1.895712e+00
  1.468906e+01    1.955695e+00
  1.480019e+01    1.905845e+00
  1.491132e+01    1.973269e+00
  1.502245e+01    2.245725e+00
  1.513358e+01    3.515457e+00
  1.524471e+01    5.521150e+00
  1.535584e+01    3.490419e+00
  1.546697e+01    2.114718e+00
  1.557809e+01    1.822665e+00
  1.568922e+01    1.730507e+00
  1.580035e+01    1.676834e+00
  1.591148e+01    1.657038e+00
  1.602261e+01    1.624182e+00
  1.613374e+01    1.554149e+00
  1.624487e+01    1.561005e+00
  1.635600e+01    1.531977e+00
  1.646713e+01    1.508501e+00
  1.657826e+01    1.537064e+00
  1.668938e+01    1.499842e+00
  1.680051e+01    1.471416e+00
  1.691164e+01    1.435033e+00
  1.702277e+01    1.445512e+00
  1.713390e+01    1.403728e+00
  1.724503e+01    1.375399e+00
  1.735616e+01    1.390366e+00
  1.746729e+01    1.392328e+00
  1.757842e+01    1.364055e+00
  1.768955e+01    1.368903e+00
  1.780067e+01    1.329201e+00
  1.791180e+01    1.315863e+00
  1.802293e+01    1.300795e+00
  1.813406e+01    1.294398e+00
  1.824519e+01    1.261487e+00
  1.835632e+01    1.280139e+00
  1.846745e+01    1.277827e+00
  1.857858e+01    1.246712e+00
  1.868971e+01    1.241692e+00
  1.880084e+01    1.241149e+00
  1.891196e+01    1.204972e+00
  1.902309e+01    1.185357e+00
  1.913422e+01    1.169811e+00
  1.924535e+01    1.189817e+00
  1.935648e+01    1.140866e+00
  1.946761e+01    1.186050e+00
  1.957874e+01    1.146226e+00
  1.968987e+01    1.145190e+00
  1.980100e+01    1.130286e+00
  1.991213e+01    1.129973e+00
  2.002325e+01    1.119648e+00
  2.013438e+01    1.122271e+00
  2.024551e+01    1.112756e+00
  2.035664e+01    1.084101e+00
  2.046777e+01    1.087652e+00
  2.057890e+01    1.068907e+00
  2.069003e+01    1.052353e+00
  2.080116e+01    1.087775e+00
  2.091229e+01    1.097367e+00
  2.102342e+01    1.078891e+00
  2.113455e+01    1.056756e+00
  2.124567e+01    1.080813e+00
  2.135680e+01    1.147766e+00
  2.146793e+01    1.207267e+00
  2.157906e+01    1.479661e+00
  2.169019e+01    2.350867e+00
  2.180132e+01    5.684611e+00
  2.191245e+01    8.659982e+00
  2.202358e+01    3.393600e+00
  2.213471e+01    1.719516e+00
  2.224584e+01    1.265610e+00
  2.235696e+01    1.108585e+00
  2.246809e+01    1.014212e+00
  2.257922e+01    9.697899e-01
  2.269035e+01    9.708046e-01
  2.280148e+01    9.056396e-01
  2.291261e+01    9.096694e-01
  2.302374e+01    8.824961e-01
  2.313487e+01    8.763000e-01
  2.324600e+01    8.732756e-01
  2.335713e+01    8.566072e-01
  2.346825e+01    8.529946e-01
  2.357938e+01    8.412074e-01
  2.369051e+01    8.383971e-01
  2.380164e+01    7.977247e-01
  2.391277e+01    7.952220e-01
  2.402390e+01    7.983781e-01
  2.413503e+01    7.880461e-01
  2.424616e+01    7.710205e-01
  2.435729e+01    7.880198e-01
  2.446842e+01    7.866438e-01
  2.457954e+01    7.902295e-01
  2.469067e+01    7.754348e-01
  2.480180e+01    7.964234e-01
  2.491293e+01    7.859607e-01
  2.502406e+01    8.007832e-01
  2.513519e+01    7.894631e-01
  2.524632e+01    8.341593e-01
  2.535745e+01    9.006952e-01
  2.546858e+01    9.490210e-01
  2.557971e+01    1.074361e+00
  2.569083e+01    1.443492e+00
  2.580196e+01    2.738906e+00
  2.591309e+01    6.356841e+00
  2.602422e+01    5.195243e+00
  2.613535e+01    1.995423e+00
  2.624648e+01    1.249056e+00
  2.635761e+01    1.006277e+00
  2.646874e+01    9.311057e-01
  2.657987e+01    9.077931e-01
  2.669100e+01    9.165922e-01
  2.680212e+01    8.654574e-01
  2.691325e+01    9.156436e-01
  2.702438e+01    1.091802e+00
  2.713551e+01    1.694564e+00
  2.724664e+01    2.095980e+00
  2.735777e+01    1.183583e+00
  2.746890e+01    9.368508e-01
  2.758003e+01    8.694270e-01
  2.769116e+01    8.082533e-01
  2.780229e+01    8.102837e-01
  2.791342e+01    7.774292e-01
  2.802454e+01    7.742068e-01
  2.813567e+01    7.666222e-01
  2.824680e+01    7.635225e-01
  2.835793e+01    7.459433e-01
  2.846906e+01    7.712541e-01
  2.858019e+01    7.547387e-01
  2.869132e+01    7.516263e-01
  2.880245e+01    7.525668e-01
  2.891358e+01    7.187868e-01
  2.902471e+01    7.271679e-01
  2.913583e+01    7.326627e-01
  2.924696e+01    7.479007e-01
  2.935809e+01    7.219654e-01
  2.946922e+01    7.221391e-01
  2.958035e+01    7.143401e-01
  2.969148e+01    7.082528e-01
  2.980261e+01    6.996551e-01
  2.991374e+01    7.162050e-01
  3.002487e+01    7.289320e-01
  3.013600e+01    7.177678e-01
  3.024712e+01    7.319281e-01
  3.035825e+01    7.138858e-01
  3.046938e+01    7.046784e-01
  3.058051e+01    6.947866e-01
  3.069164e+01    7.167329e-01
  3.080277e+01    7.102879e-01
  3.091390e+01    7.109931e-01
  3.102503e+01    7.215456e-01
  3.113616e+01    7.295952e-01
  3.124729e+01    7.251595e-01
  3.135841e+01    7.399918e-01
  3.146954e+01    7.461540e-01
  3.158067e+01    8.058829e-01
  3.169180e+01    9.274743e-01
  3.180293e+01    1.433187e+00
  3.191406e+01    2.114225e+00
  3.202519e+01    1.255486e+00
  3.213632e+01    8.737383e-01
  3.224745e+01    7.593589e-01
  3.235858e+01    7.320032e-01
  3.246970e+01    7.242317e-01
  3.254908e+01    7.176316e-01