File: XRD/Activation ramp/2024-07-27_002_Ru-CGO-ex_Activtation_ramp_000002_data_000165.dat
# == pyFAI calibration ==
# Distance Sample to Detector: 0.4 m
# PONI: 9.750e-02, 1.135e-01 m
# Rotations: -0.000175 0.000000 -0.000000 rad
#
# == Fit2d calibration ==
# Distance Sample-beamCenter: 400.000 mm
# Center: x=1514.000, y=1300.000 pix
# Tilt: 0.010 deg  TiltPlanRot: 0.010 deg
#
# Detector Detector	 Spline= None	 PixelSize= 7.500e-05, 7.500e-05 m
#    Detector has a mask: False
#    Detector has a dark current: False
#    detector has a flat field: False
#
# Wavelength: 6.888e-11 m
# Mask applied: user provided
# Dark current applied: False
# Flat field applied: False
# Polarization factor: 0.99
# Normalization factor: 1.0
# --> /home/myspot/data/2024_07_Rosario/Ru-CGO-ex/2024-07-27_002_Ru-CGO-ex_Activtation_ramp_000002_data_000165.dat
#       q_nm^-1             I
  2.003187e-02    0.000000e+00
  1.311609e-01    5.730603e-02
  2.422899e-01    4.960593e-02
  3.534189e-01    4.948752e-02
  4.645479e-01    3.020974e-02
  5.756770e-01    2.878307e-02
  6.868060e-01    3.173828e-02
  7.979350e-01    1.717619e-01
  9.090640e-01    6.016486e-01
  1.020193e+00    1.126975e+00
  1.131322e+00    1.385111e+00
  1.242451e+00    2.250779e+00
  1.353580e+00    2.424708e+00
  1.464709e+00    2.726636e+00
  1.575838e+00    2.905645e+00
  1.686967e+00    2.780444e+00
  1.798096e+00    2.579983e+00
  1.909225e+00    2.822009e+00
  2.020354e+00    2.739919e+00
  2.131483e+00    2.738727e+00
  2.242612e+00    2.587974e+00
  2.353741e+00    2.672911e+00
  2.464870e+00    2.883634e+00
  2.575999e+00    2.731047e+00
  2.687128e+00    2.856496e+00
  2.798257e+00    2.792645e+00
  2.909386e+00    2.876373e+00
  3.020515e+00    2.767188e+00
  3.131644e+00    2.852401e+00
  3.242773e+00    2.932887e+00
  3.353902e+00    2.914072e+00
  3.465031e+00    3.049354e+00
  3.576160e+00    2.873646e+00
  3.687289e+00    2.965329e+00
  3.798418e+00    3.030284e+00
  3.909547e+00    3.012968e+00
  4.020676e+00    2.975350e+00
  4.131806e+00    3.066470e+00
  4.242935e+00    2.997652e+00
  4.354064e+00    3.120644e+00
  4.465193e+00    3.024956e+00
  4.576322e+00    2.981241e+00
  4.687451e+00    3.096838e+00
  4.798580e+00    3.060604e+00
  4.909709e+00    3.140750e+00
  5.020838e+00    3.188070e+00
  5.131967e+00    3.177421e+00
  5.243096e+00    3.149626e+00
  5.354225e+00    3.133199e+00
  5.465354e+00    3.123755e+00
  5.576483e+00    3.109285e+00
  5.687612e+00    3.024199e+00
  5.798741e+00    3.042255e+00
  5.909870e+00    3.071438e+00
  6.020999e+00    3.046957e+00
  6.132128e+00    3.123722e+00
  6.243257e+00    3.091004e+00
  6.354386e+00    3.040762e+00
  6.465515e+00    2.994680e+00
  6.576644e+00    3.060063e+00
  6.687773e+00    2.995551e+00
  6.798902e+00    3.016747e+00
  6.910031e+00    2.980539e+00
  7.021160e+00    3.069874e+00
  7.132289e+00    2.971280e+00
  7.243418e+00    2.976073e+00
  7.354547e+00    3.037094e+00
  7.465676e+00    3.045259e+00
  7.576805e+00    2.980542e+00
  7.687934e+00    2.992196e+00
  7.799063e+00    2.942027e+00
  7.910192e+00    2.947942e+00
  8.021321e+00    2.960961e+00
  8.132450e+00    2.925720e+00
  8.243579e+00    3.003633e+00
  8.354708e+00    2.877967e+00
  8.465837e+00    2.952580e+00
  8.576966e+00    2.859427e+00
  8.688095e+00    2.813585e+00
  8.799224e+00    2.902605e+00
  8.910353e+00    2.806265e+00
  9.021482e+00    2.751409e+00
  9.132611e+00    2.809020e+00
  9.243740e+00    2.770604e+00
  9.354869e+00    2.794047e+00
  9.465998e+00    2.741694e+00
  9.577127e+00    2.761136e+00
  9.688256e+00    2.747267e+00
  9.799385e+00    2.708165e+00
  9.910514e+00    2.727964e+00
  1.002164e+01    2.643816e+00
  1.013277e+01    2.715672e+00
  1.024390e+01    2.579708e+00
  1.035503e+01    2.627811e+00
  1.046616e+01    2.620331e+00
  1.057729e+01    2.638122e+00
  1.068842e+01    2.561821e+00
  1.079955e+01    2.558069e+00
  1.091068e+01    2.520093e+00
  1.102180e+01    2.483227e+00
  1.113293e+01    2.497458e+00
  1.124406e+01    2.438679e+00
  1.135519e+01    2.425741e+00
  1.146632e+01    2.422837e+00
  1.157745e+01    2.394614e+00
  1.168858e+01    2.373383e+00
  1.179971e+01    2.336565e+00
  1.191084e+01    2.351004e+00
  1.202197e+01    2.322392e+00
  1.213309e+01    2.321805e+00
  1.224422e+01    2.343077e+00
  1.235535e+01    2.345993e+00
  1.246648e+01    2.383936e+00
  1.257761e+01    2.346200e+00
  1.268874e+01    2.510625e+00
  1.279987e+01    2.681790e+00
  1.291100e+01    3.276565e+00
  1.302213e+01    6.234652e+00
  1.313326e+01    1.429929e+01
  1.324438e+01    1.069485e+01
  1.335551e+01    4.165212e+00
  1.346664e+01    2.832901e+00
  1.357777e+01    2.449437e+00
  1.368890e+01    2.215122e+00
  1.380003e+01    2.117626e+00
  1.391116e+01    2.099268e+00
  1.402229e+01    2.072125e+00
  1.413342e+01    1.999752e+00
  1.424455e+01    1.975114e+00
  1.435568e+01    1.958288e+00
  1.446680e+01    1.963682e+00
  1.457793e+01    1.914773e+00
  1.468906e+01    1.939144e+00
  1.480019e+01    1.943112e+00
  1.491132e+01    1.949806e+00
  1.502245e+01    2.211443e+00
  1.513358e+01    3.534214e+00
  1.524471e+01    5.514654e+00
  1.535584e+01    3.569473e+00
  1.546697e+01    2.173259e+00
  1.557809e+01    1.846923e+00
  1.568922e+01    1.754447e+00
  1.580035e+01    1.659801e+00
  1.591148e+01    1.636123e+00
  1.602261e+01    1.623032e+00
  1.613374e+01    1.599998e+00
  1.624487e+01    1.562574e+00
  1.635600e+01    1.546743e+00
  1.646713e+01    1.528226e+00
  1.657826e+01    1.489221e+00
  1.668938e+01    1.474874e+00
  1.680051e+01    1.460603e+00
  1.691164e+01    1.491401e+00
  1.702277e+01    1.476229e+00
  1.713390e+01    1.443632e+00
  1.724503e+01    1.382972e+00
  1.735616e+01    1.400984e+00
  1.746729e+01    1.365271e+00
  1.757842e+01    1.308007e+00
  1.768955e+01    1.352355e+00
  1.780067e+01    1.347255e+00
  1.791180e+01    1.338068e+00
  1.802293e+01    1.324630e+00
  1.813406e+01    1.313523e+00
  1.824519e+01    1.251010e+00
  1.835632e+01    1.260788e+00
  1.846745e+01    1.269528e+00
  1.857858e+01    1.230924e+00
  1.868971e+01    1.219555e+00
  1.880084e+01    1.215726e+00
  1.891196e+01    1.229313e+00
  1.902309e+01    1.205067e+00
  1.913422e+01    1.210292e+00
  1.924535e+01    1.185147e+00
  1.935648e+01    1.173457e+00
  1.946761e+01    1.167573e+00
  1.957874e+01    1.156824e+00
  1.968987e+01    1.124070e+00
  1.980100e+01    1.141096e+00
  1.991213e+01    1.122318e+00
  2.002325e+01    1.100409e+00
  2.013438e+01    1.104070e+00
  2.024551e+01    1.113834e+00
  2.035664e+01    1.084306e+00
  2.046777e+01    1.105646e+00
  2.057890e+01    1.093174e+00
  2.069003e+01    1.075402e+00
  2.080116e+01    1.098442e+00
  2.091229e+01    1.088337e+00
  2.102342e+01    1.071748e+00
  2.113455e+01    1.075200e+00
  2.124567e+01    1.077300e+00
  2.135680e+01    1.149199e+00
  2.146793e+01    1.234282e+00
  2.157906e+01    1.481564e+00
  2.169019e+01    2.383898e+00
  2.180132e+01    5.594764e+00
  2.191245e+01    8.887678e+00
  2.202358e+01    3.533900e+00
  2.213471e+01    1.720866e+00
  2.224584e+01    1.284089e+00
  2.235696e+01    1.102762e+00
  2.246809e+01    1.025440e+00
  2.257922e+01    9.837729e-01
  2.269035e+01    9.572359e-01
  2.280148e+01    9.471692e-01
  2.291261e+01    9.085984e-01
  2.302374e+01    9.111458e-01
  2.313487e+01    8.815151e-01
  2.324600e+01    8.846244e-01
  2.335713e+01    8.507499e-01
  2.346825e+01    8.500665e-01
  2.357938e+01    8.554933e-01
  2.369051e+01    8.271521e-01
  2.380164e+01    8.324544e-01
  2.391277e+01    7.959461e-01
  2.402390e+01    7.940084e-01
  2.413503e+01    7.883281e-01
  2.424616e+01    7.903526e-01
  2.435729e+01    7.767861e-01
  2.446842e+01    7.984238e-01
  2.457954e+01    7.735702e-01
  2.469067e+01    7.945164e-01
  2.480180e+01    8.086581e-01
  2.491293e+01    7.990774e-01
  2.502406e+01    8.102698e-01
  2.513519e+01    7.992911e-01
  2.524632e+01    8.253224e-01
  2.535745e+01    8.804598e-01
  2.546858e+01    9.389335e-01
  2.557971e+01    1.064430e+00
  2.569083e+01    1.451734e+00
  2.580196e+01    2.699847e+00
  2.591309e+01    6.270783e+00
  2.602422e+01    5.394465e+00
  2.613535e+01    2.068531e+00
  2.624648e+01    1.250232e+00
  2.635761e+01    1.019148e+00
  2.646874e+01    9.196739e-01
  2.657987e+01    8.913679e-01
  2.669100e+01    8.599929e-01
  2.680212e+01    8.738131e-01
  2.691325e+01    9.288713e-01
  2.702438e+01    1.059002e+00
  2.713551e+01    1.621496e+00
  2.724664e+01    2.121686e+00
  2.735777e+01    1.230391e+00
  2.746890e+01    9.221209e-01
  2.758003e+01    8.394921e-01
  2.769116e+01    8.269262e-01
  2.780229e+01    8.166282e-01
  2.791342e+01    7.866188e-01
  2.802454e+01    7.712659e-01
  2.813567e+01    7.586694e-01
  2.824680e+01    7.699552e-01
  2.835793e+01    7.448373e-01
  2.846906e+01    7.473966e-01
  2.858019e+01    7.397792e-01
  2.869132e+01    7.610637e-01
  2.880245e+01    7.321862e-01
  2.891358e+01    7.238482e-01
  2.902471e+01    7.246134e-01
  2.913583e+01    7.408062e-01
  2.924696e+01    7.392761e-01
  2.935809e+01    7.350688e-01
  2.946922e+01    7.188908e-01
  2.958035e+01    7.195780e-01
  2.969148e+01    6.985753e-01
  2.980261e+01    7.219498e-01
  2.991374e+01    7.291741e-01
  3.002487e+01    7.333618e-01
  3.013600e+01    7.324642e-01
  3.024712e+01    6.862101e-01
  3.035825e+01    7.114516e-01
  3.046938e+01    7.144546e-01
  3.058051e+01    7.194293e-01
  3.069164e+01    7.036815e-01
  3.080277e+01    7.196084e-01
  3.091390e+01    6.870127e-01
  3.102503e+01    7.036107e-01
  3.113616e+01    7.089013e-01
  3.124729e+01    7.103903e-01
  3.135841e+01    7.303845e-01
  3.146954e+01    7.363054e-01
  3.158067e+01    8.086909e-01
  3.169180e+01    9.505833e-01
  3.180293e+01    1.402334e+00
  3.191406e+01    2.150645e+00
  3.202519e+01    1.309789e+00
  3.213632e+01    8.789067e-01
  3.224745e+01    8.034495e-01
  3.235858e+01    7.570684e-01
  3.246970e+01    7.286552e-01
  3.254908e+01    7.148507e-01