File: XRD/Activation ramp/2024-07-27_002_Ru-CGO-ex_Activtation_ramp_000002_data_000067.dat
# == pyFAI calibration ==
# Distance Sample to Detector: 0.4 m
# PONI: 9.750e-02, 1.135e-01 m
# Rotations: -0.000175 0.000000 -0.000000 rad
#
# == Fit2d calibration ==
# Distance Sample-beamCenter: 400.000 mm
# Center: x=1514.000, y=1300.000 pix
# Tilt: 0.010 deg  TiltPlanRot: 0.010 deg
#
# Detector Detector	 Spline= None	 PixelSize= 7.500e-05, 7.500e-05 m
#    Detector has a mask: False
#    Detector has a dark current: False
#    detector has a flat field: False
#
# Wavelength: 6.888e-11 m
# Mask applied: user provided
# Dark current applied: False
# Flat field applied: False
# Polarization factor: 0.99
# Normalization factor: 1.0
# --> /home/myspot/data/2024_07_Rosario/Ru-CGO-ex/2024-07-27_002_Ru-CGO-ex_Activtation_ramp_000002_data_000067.dat
#       q_nm^-1             I
  2.003187e-02    0.000000e+00
  1.311609e-01    8.987715e-03
  2.422899e-01    3.483613e-02
  3.534189e-01    1.477265e-02
  4.645479e-01    4.596953e-02
  5.756770e-01    6.095082e-02
  6.868060e-01    3.719740e-02
  7.979350e-01    1.294246e-01
  9.090640e-01    6.213709e-01
  1.020193e+00    1.128697e+00
  1.131322e+00    1.442027e+00
  1.242451e+00    2.097786e+00
  1.353580e+00    2.560724e+00
  1.464709e+00    2.796642e+00
  1.575838e+00    3.111001e+00
  1.686967e+00    2.904151e+00
  1.798096e+00    2.764422e+00
  1.909225e+00    2.786978e+00
  2.020354e+00    2.705006e+00
  2.131483e+00    2.534114e+00
  2.242612e+00    2.769757e+00
  2.353741e+00    2.839273e+00
  2.464870e+00    2.799375e+00
  2.575999e+00    2.825007e+00
  2.687128e+00    2.854095e+00
  2.798257e+00    2.873791e+00
  2.909386e+00    2.840388e+00
  3.020515e+00    2.930196e+00
  3.131644e+00    2.930435e+00
  3.242773e+00    2.902900e+00
  3.353902e+00    2.929658e+00
  3.465031e+00    2.941533e+00
  3.576160e+00    2.901276e+00
  3.687289e+00    3.059567e+00
  3.798418e+00    3.046911e+00
  3.909547e+00    3.043815e+00
  4.020676e+00    3.013633e+00
  4.131806e+00    3.010170e+00
  4.242935e+00    3.108131e+00
  4.354064e+00    3.057015e+00
  4.465193e+00    3.095778e+00
  4.576322e+00    3.066464e+00
  4.687451e+00    3.109322e+00
  4.798580e+00    3.087876e+00
  4.909709e+00    3.025753e+00
  5.020838e+00    3.104913e+00
  5.131967e+00    3.069920e+00
  5.243096e+00    3.128638e+00
  5.354225e+00    3.214697e+00
  5.465354e+00    3.065837e+00
  5.576483e+00    3.007086e+00
  5.687612e+00    3.028872e+00
  5.798741e+00    3.070399e+00
  5.909870e+00    3.136938e+00
  6.020999e+00    3.023791e+00
  6.132128e+00    3.077807e+00
  6.243257e+00    3.109703e+00
  6.354386e+00    3.074070e+00
  6.465515e+00    3.042911e+00
  6.576644e+00    3.099813e+00
  6.687773e+00    2.997194e+00
  6.798902e+00    3.035310e+00
  6.910031e+00    2.996298e+00
  7.021160e+00    3.041700e+00
  7.132289e+00    3.016576e+00
  7.243418e+00    2.980215e+00
  7.354547e+00    3.010088e+00
  7.465676e+00    2.933169e+00
  7.576805e+00    2.943135e+00
  7.687934e+00    2.957101e+00
  7.799063e+00    2.918683e+00
  7.910192e+00    2.951450e+00
  8.021321e+00    2.865504e+00
  8.132450e+00    3.011544e+00
  8.243579e+00    2.965390e+00
  8.354708e+00    2.908050e+00
  8.465837e+00    2.833940e+00
  8.576966e+00    2.897597e+00
  8.688095e+00    2.878574e+00
  8.799224e+00    2.808517e+00
  8.910353e+00    2.864733e+00
  9.021482e+00    2.809713e+00
  9.132611e+00    2.835650e+00
  9.243740e+00    2.742382e+00
  9.354869e+00    2.751683e+00
  9.465998e+00    2.752859e+00
  9.577127e+00    2.760578e+00
  9.688256e+00    2.820291e+00
  9.799385e+00    2.736690e+00
  9.910514e+00    2.683110e+00
  1.002164e+01    2.697293e+00
  1.013277e+01    2.623198e+00
  1.024390e+01    2.655797e+00
  1.035503e+01    2.636519e+00
  1.046616e+01    2.536728e+00
  1.057729e+01    2.571863e+00
  1.068842e+01    2.635981e+00
  1.079955e+01    2.532850e+00
  1.091068e+01    2.519013e+00
  1.102180e+01    2.460940e+00
  1.113293e+01    2.494179e+00
  1.124406e+01    2.437046e+00
  1.135519e+01    2.490567e+00
  1.146632e+01    2.392303e+00
  1.157745e+01    2.377072e+00
  1.168858e+01    2.348449e+00
  1.179971e+01    2.366990e+00
  1.191084e+01    2.338397e+00
  1.202197e+01    2.308915e+00
  1.213309e+01    2.306000e+00
  1.224422e+01    2.293526e+00
  1.235535e+01    2.369167e+00
  1.246648e+01    2.358123e+00
  1.257761e+01    2.405941e+00
  1.268874e+01    2.483207e+00
  1.279987e+01    2.656316e+00
  1.291100e+01    3.288249e+00
  1.302213e+01    5.940847e+00
  1.313326e+01    1.492670e+01
  1.324438e+01    1.440670e+01
  1.335551e+01    4.907615e+00
  1.346664e+01    3.099566e+00
  1.357777e+01    2.553977e+00
  1.368890e+01    2.295204e+00
  1.380003e+01    2.194115e+00
  1.391116e+01    2.113212e+00
  1.402229e+01    2.065258e+00
  1.413342e+01    1.981991e+00
  1.424455e+01    2.030154e+00
  1.435568e+01    1.961837e+00
  1.446680e+01    1.904822e+00
  1.457793e+01    1.945593e+00
  1.468906e+01    1.903022e+00
  1.480019e+01    1.911505e+00
  1.491132e+01    1.916803e+00
  1.502245e+01    2.204272e+00
  1.513358e+01    3.296625e+00
  1.524471e+01    5.906586e+00
  1.535584e+01    4.435452e+00
  1.546697e+01    2.370902e+00
  1.557809e+01    1.906337e+00
  1.568922e+01    1.772148e+00
  1.580035e+01    1.699560e+00
  1.591148e+01    1.646402e+00
  1.602261e+01    1.612536e+00
  1.613374e+01    1.579249e+00
  1.624487e+01    1.585171e+00
  1.635600e+01    1.562575e+00
  1.646713e+01    1.527139e+00
  1.657826e+01    1.503220e+00
  1.668938e+01    1.474402e+00
  1.680051e+01    1.473187e+00
  1.691164e+01    1.452610e+00
  1.702277e+01    1.440839e+00
  1.713390e+01    1.429146e+00
  1.724503e+01    1.434584e+00
  1.735616e+01    1.375322e+00
  1.746729e+01    1.387157e+00
  1.757842e+01    1.367175e+00
  1.768955e+01    1.381828e+00
  1.780067e+01    1.321666e+00
  1.791180e+01    1.347160e+00
  1.802293e+01    1.322408e+00
  1.813406e+01    1.280155e+00
  1.824519e+01    1.299612e+00
  1.835632e+01    1.255661e+00
  1.846745e+01    1.262199e+00
  1.857858e+01    1.220701e+00
  1.868971e+01    1.250175e+00
  1.880084e+01    1.225105e+00
  1.891196e+01    1.209208e+00
  1.902309e+01    1.202374e+00
  1.913422e+01    1.210657e+00
  1.924535e+01    1.189440e+00
  1.935648e+01    1.128047e+00
  1.946761e+01    1.163639e+00
  1.957874e+01    1.137141e+00
  1.968987e+01    1.155690e+00
  1.980100e+01    1.163540e+00
  1.991213e+01    1.159106e+00
  2.002325e+01    1.119853e+00
  2.013438e+01    1.149184e+00
  2.024551e+01    1.120568e+00
  2.035664e+01    1.107791e+00
  2.046777e+01    1.120972e+00
  2.057890e+01    1.097159e+00
  2.069003e+01    1.097298e+00
  2.080116e+01    1.090635e+00
  2.091229e+01    1.083239e+00
  2.102342e+01    1.089269e+00
  2.113455e+01    1.089382e+00
  2.124567e+01    1.105339e+00
  2.135680e+01    1.167315e+00
  2.146793e+01    1.254274e+00
  2.157906e+01    1.471951e+00
  2.169019e+01    2.227899e+00
  2.180132e+01    5.144700e+00
  2.191245e+01    1.024791e+01
  2.202358e+01    5.040813e+00
  2.213471e+01    2.103229e+00
  2.224584e+01    1.397821e+00
  2.235696e+01    1.183205e+00
  2.246809e+01    1.085342e+00
  2.257922e+01    1.021108e+00
  2.269035e+01    9.744945e-01
  2.280148e+01    9.342996e-01
  2.291261e+01    9.055113e-01
  2.302374e+01    9.023970e-01
  2.313487e+01    8.841748e-01
  2.324600e+01    8.790964e-01
  2.335713e+01    8.460881e-01
  2.346825e+01    8.614305e-01
  2.357938e+01    8.521332e-01
  2.369051e+01    8.399106e-01
  2.380164e+01    8.109817e-01
  2.391277e+01    8.059857e-01
  2.402390e+01    8.073741e-01
  2.413503e+01    7.753471e-01
  2.424616e+01    7.896112e-01
  2.435729e+01    7.982924e-01
  2.446842e+01    7.827185e-01
  2.457954e+01    7.857835e-01
  2.469067e+01    8.104665e-01
  2.480180e+01    7.957551e-01
  2.491293e+01    7.975738e-01
  2.502406e+01    8.064106e-01
  2.513519e+01    8.197780e-01
  2.524632e+01    8.437792e-01
  2.535745e+01    9.032708e-01
  2.546858e+01    9.423912e-01
  2.557971e+01    1.076342e+00
  2.569083e+01    1.367247e+00
  2.580196e+01    2.379140e+00
  2.591309e+01    5.962821e+00
  2.602422e+01    7.796468e+00
  2.613535e+01    2.946879e+00
  2.624648e+01    1.519517e+00
  2.635761e+01    1.135354e+00
  2.646874e+01    9.908165e-01
  2.657987e+01    9.346173e-01
  2.669100e+01    9.078465e-01
  2.680212e+01    9.104106e-01
  2.691325e+01    9.393055e-01
  2.702438e+01    1.029179e+00
  2.713551e+01    1.534129e+00
  2.724664e+01    2.451807e+00
  2.735777e+01    1.553885e+00
  2.746890e+01    1.023448e+00
  2.758003e+01    8.830975e-01
  2.769116e+01    8.444972e-01
  2.780229e+01    8.460000e-01
  2.791342e+01    7.992723e-01
  2.802454e+01    7.896113e-01
  2.813567e+01    7.913461e-01
  2.824680e+01    7.881547e-01
  2.835793e+01    7.428209e-01
  2.846906e+01    7.700729e-01
  2.858019e+01    7.634715e-01
  2.869132e+01    7.684063e-01
  2.880245e+01    7.493385e-01
  2.891358e+01    7.588484e-01
  2.902471e+01    7.690573e-01
  2.913583e+01    7.403418e-01
  2.924696e+01    7.351024e-01
  2.935809e+01    7.291912e-01
  2.946922e+01    7.343667e-01
  2.958035e+01    7.466009e-01
  2.969148e+01    7.157661e-01
  2.980261e+01    7.230499e-01
  2.991374e+01    7.175285e-01
  3.002487e+01    7.332780e-01
  3.013600e+01    7.258756e-01
  3.024712e+01    7.342539e-01
  3.035825e+01    7.131410e-01
  3.046938e+01    7.171427e-01
  3.058051e+01    7.133929e-01
  3.069164e+01    7.194323e-01
  3.080277e+01    7.122443e-01
  3.091390e+01    7.048550e-01
  3.102503e+01    7.301059e-01
  3.113616e+01    7.246278e-01
  3.124729e+01    7.539908e-01
  3.135841e+01    7.353855e-01
  3.146954e+01    7.338439e-01
  3.158067e+01    8.361973e-01
  3.169180e+01    9.073725e-01
  3.180293e+01    1.267613e+00
  3.191406e+01    2.316390e+00
  3.202519e+01    1.826820e+00
  3.213632e+01    1.008348e+00
  3.224745e+01    8.459182e-01
  3.235858e+01    7.560614e-01
  3.246970e+01    7.622938e-01
  3.254908e+01    7.473478e-01