File: XRD/Activation ramp/2024-07-27_002_Ru-CGO-ex_Activtation_ramp_000002_data_000015.dat
# == pyFAI calibration ==
# Distance Sample to Detector: 0.4 m
# PONI: 9.750e-02, 1.135e-01 m
# Rotations: -0.000175 0.000000 -0.000000 rad
#
# == Fit2d calibration ==
# Distance Sample-beamCenter: 400.000 mm
# Center: x=1514.000, y=1300.000 pix
# Tilt: 0.010 deg  TiltPlanRot: 0.010 deg
#
# Detector Detector	 Spline= None	 PixelSize= 7.500e-05, 7.500e-05 m
#    Detector has a mask: False
#    Detector has a dark current: False
#    detector has a flat field: False
#
# Wavelength: 6.888e-11 m
# Mask applied: user provided
# Dark current applied: False
# Flat field applied: False
# Polarization factor: 0.99
# Normalization factor: 1.0
# --> /home/myspot/data/2024_07_Rosario/Ru-CGO-ex/2024-07-27_002_Ru-CGO-ex_Activtation_ramp_000002_data_000015.dat
#       q_nm^-1             I
  2.003187e-02    0.000000e+00
  1.311609e-01    7.569604e-02
  2.422899e-01    2.733315e-02
  3.534189e-01    7.159500e-02
  4.645479e-01    6.975046e-02
  5.756770e-01    5.618352e-02
  6.868060e-01    2.749482e-02
  7.979350e-01    1.335030e-01
  9.090640e-01    6.351907e-01
  1.020193e+00    1.042101e+00
  1.131322e+00    1.392613e+00
  1.242451e+00    2.300148e+00
  1.353580e+00    2.579222e+00
  1.464709e+00    2.786268e+00
  1.575838e+00    3.084120e+00
  1.686967e+00    2.953054e+00
  1.798096e+00    2.900995e+00
  1.909225e+00    2.938164e+00
  2.020354e+00    2.846261e+00
  2.131483e+00    2.816073e+00
  2.242612e+00    2.807799e+00
  2.353741e+00    2.795330e+00
  2.464870e+00    2.892352e+00
  2.575999e+00    2.816131e+00
  2.687128e+00    2.802300e+00
  2.798257e+00    2.879442e+00
  2.909386e+00    3.006376e+00
  3.020515e+00    2.902703e+00
  3.131644e+00    2.884418e+00
  3.242773e+00    2.972943e+00
  3.353902e+00    2.955657e+00
  3.465031e+00    3.044743e+00
  3.576160e+00    2.920434e+00
  3.687289e+00    2.986670e+00
  3.798418e+00    3.049277e+00
  3.909547e+00    3.026717e+00
  4.020676e+00    3.048845e+00
  4.131806e+00    3.164956e+00
  4.242935e+00    3.111814e+00
  4.354064e+00    3.048255e+00
  4.465193e+00    3.035420e+00
  4.576322e+00    3.169897e+00
  4.687451e+00    3.142469e+00
  4.798580e+00    3.176273e+00
  4.909709e+00    3.217789e+00
  5.020838e+00    3.150727e+00
  5.131967e+00    3.188963e+00
  5.243096e+00    3.243165e+00
  5.354225e+00    3.128089e+00
  5.465354e+00    3.159579e+00
  5.576483e+00    3.133639e+00
  5.687612e+00    3.167980e+00
  5.798741e+00    3.102377e+00
  5.909870e+00    3.068663e+00
  6.020999e+00    3.014661e+00
  6.132128e+00    3.112217e+00
  6.243257e+00    3.062139e+00
  6.354386e+00    3.027742e+00
  6.465515e+00    3.085429e+00
  6.576644e+00    3.107364e+00
  6.687773e+00    3.045531e+00
  6.798902e+00    3.099420e+00
  6.910031e+00    3.051175e+00
  7.021160e+00    3.018542e+00
  7.132289e+00    3.042257e+00
  7.243418e+00    3.063472e+00
  7.354547e+00    2.972985e+00
  7.465676e+00    3.017502e+00
  7.576805e+00    2.942035e+00
  7.687934e+00    3.045261e+00
  7.799063e+00    3.005651e+00
  7.910192e+00    2.916021e+00
  8.021321e+00    2.964142e+00
  8.132450e+00    2.985820e+00
  8.243579e+00    2.959797e+00
  8.354708e+00    2.889861e+00
  8.465837e+00    2.874562e+00
  8.576966e+00    2.941197e+00
  8.688095e+00    2.910134e+00
  8.799224e+00    2.864916e+00
  8.910353e+00    2.894460e+00
  9.021482e+00    2.834043e+00
  9.132611e+00    2.818987e+00
  9.243740e+00    2.790473e+00
  9.354869e+00    2.778384e+00
  9.465998e+00    2.826088e+00
  9.577127e+00    2.757402e+00
  9.688256e+00    2.792539e+00
  9.799385e+00    2.758377e+00
  9.910514e+00    2.759861e+00
  1.002164e+01    2.696686e+00
  1.013277e+01    2.734496e+00
  1.024390e+01    2.663144e+00
  1.035503e+01    2.601345e+00
  1.046616e+01    2.659789e+00
  1.057729e+01    2.614596e+00
  1.068842e+01    2.586015e+00
  1.079955e+01    2.547930e+00
  1.091068e+01    2.553544e+00
  1.102180e+01    2.529051e+00
  1.113293e+01    2.460652e+00
  1.124406e+01    2.513189e+00
  1.135519e+01    2.489405e+00
  1.146632e+01    2.441907e+00
  1.157745e+01    2.416550e+00
  1.168858e+01    2.392260e+00
  1.179971e+01    2.425158e+00
  1.191084e+01    2.359909e+00
  1.202197e+01    2.336446e+00
  1.213309e+01    2.342336e+00
  1.224422e+01    2.344350e+00
  1.235535e+01    2.368565e+00
  1.246648e+01    2.373577e+00
  1.257761e+01    2.380801e+00
  1.268874e+01    2.521011e+00
  1.279987e+01    2.759625e+00
  1.291100e+01    3.336697e+00
  1.302213e+01    5.778212e+00
  1.313326e+01    1.519922e+01
  1.324438e+01    1.652795e+01
  1.335551e+01    5.565893e+00
  1.346664e+01    3.246629e+00
  1.357777e+01    2.592104e+00
  1.368890e+01    2.385000e+00
  1.380003e+01    2.250850e+00
  1.391116e+01    2.125960e+00
  1.402229e+01    2.121650e+00
  1.413342e+01    2.033111e+00
  1.424455e+01    2.012649e+00
  1.435568e+01    1.966501e+00
  1.446680e+01    1.959548e+00
  1.457793e+01    1.953027e+00
  1.468906e+01    1.906327e+00
  1.480019e+01    1.948675e+00
  1.491132e+01    1.970536e+00
  1.502245e+01    2.195873e+00
  1.513358e+01    3.254416e+00
  1.524471e+01    6.094922e+00
  1.535584e+01    5.107666e+00
  1.546697e+01    2.542186e+00
  1.557809e+01    1.945811e+00
  1.568922e+01    1.794305e+00
  1.580035e+01    1.727886e+00
  1.591148e+01    1.671352e+00
  1.602261e+01    1.598126e+00
  1.613374e+01    1.609566e+00
  1.624487e+01    1.582541e+00
  1.635600e+01    1.562355e+00
  1.646713e+01    1.575269e+00
  1.657826e+01    1.515297e+00
  1.668938e+01    1.518963e+00
  1.680051e+01    1.500017e+00
  1.691164e+01    1.474078e+00
  1.702277e+01    1.451672e+00
  1.713390e+01    1.430721e+00
  1.724503e+01    1.419402e+00
  1.735616e+01    1.402768e+00
  1.746729e+01    1.376190e+00
  1.757842e+01    1.399302e+00
  1.768955e+01    1.356871e+00
  1.780067e+01    1.367608e+00
  1.791180e+01    1.339406e+00
  1.802293e+01    1.323507e+00
  1.813406e+01    1.312378e+00
  1.824519e+01    1.271031e+00
  1.835632e+01    1.268641e+00
  1.846745e+01    1.273284e+00
  1.857858e+01    1.259019e+00
  1.868971e+01    1.276053e+00
  1.880084e+01    1.242539e+00
  1.891196e+01    1.232079e+00
  1.902309e+01    1.210429e+00
  1.913422e+01    1.218742e+00
  1.924535e+01    1.210399e+00
  1.935648e+01    1.194984e+00
  1.946761e+01    1.223629e+00
  1.957874e+01    1.176436e+00
  1.968987e+01    1.166354e+00
  1.980100e+01    1.151895e+00
  1.991213e+01    1.156345e+00
  2.002325e+01    1.156116e+00
  2.013438e+01    1.142382e+00
  2.024551e+01    1.129581e+00
  2.035664e+01    1.093757e+00
  2.046777e+01    1.103912e+00
  2.057890e+01    1.111656e+00
  2.069003e+01    1.097090e+00
  2.080116e+01    1.090058e+00
  2.091229e+01    1.080190e+00
  2.102342e+01    1.096111e+00
  2.113455e+01    1.095926e+00
  2.124567e+01    1.114121e+00
  2.135680e+01    1.155877e+00
  2.146793e+01    1.261966e+00
  2.157906e+01    1.459695e+00
  2.169019e+01    2.102975e+00
  2.180132e+01    4.795822e+00
  2.191245e+01    1.053978e+01
  2.202358e+01    6.258853e+00
  2.213471e+01    2.375193e+00
  2.224584e+01    1.518597e+00
  2.235696e+01    1.218927e+00
  2.246809e+01    1.083779e+00
  2.257922e+01    1.028365e+00
  2.269035e+01    9.747043e-01
  2.280148e+01    9.487305e-01
  2.291261e+01    9.369315e-01
  2.302374e+01    9.299238e-01
  2.313487e+01    9.217457e-01
  2.324600e+01    8.737374e-01
  2.335713e+01    8.774814e-01
  2.346825e+01    8.925798e-01
  2.357938e+01    8.660854e-01
  2.369051e+01    8.470944e-01
  2.380164e+01    8.233520e-01
  2.391277e+01    8.239902e-01
  2.402390e+01    8.046623e-01
  2.413503e+01    8.131759e-01
  2.424616e+01    7.958927e-01
  2.435729e+01    8.104169e-01
  2.446842e+01    8.265287e-01
  2.457954e+01    8.270575e-01
  2.469067e+01    8.058176e-01
  2.480180e+01    8.195411e-01
  2.491293e+01    8.040313e-01
  2.502406e+01    8.127542e-01
  2.513519e+01    8.408167e-01
  2.524632e+01    8.550273e-01
  2.535745e+01    8.876051e-01
  2.546858e+01    9.765446e-01
  2.557971e+01    1.056140e+00
  2.569083e+01    1.330763e+00
  2.580196e+01    2.192090e+00
  2.591309e+01    5.440361e+00
  2.602422e+01    9.014235e+00
  2.613535e+01    3.695852e+00
  2.624648e+01    1.750986e+00
  2.635761e+01    1.206041e+00
  2.646874e+01    1.045912e+00
  2.657987e+01    9.825836e-01
  2.669100e+01    9.249800e-01
  2.680212e+01    9.211539e-01
  2.691325e+01    9.490122e-01
  2.702438e+01    1.038397e+00
  2.713551e+01    1.444202e+00
  2.724664e+01    2.535134e+00
  2.735777e+01    1.839970e+00
  2.746890e+01    1.085575e+00
  2.758003e+01    9.361578e-01
  2.769116e+01    8.927789e-01
  2.780229e+01    8.478192e-01
  2.791342e+01    8.122743e-01
  2.802454e+01    8.001938e-01
  2.813567e+01    8.087931e-01
  2.824680e+01    7.978988e-01
  2.835793e+01    7.749683e-01
  2.846906e+01    7.804855e-01
  2.858019e+01    7.626789e-01
  2.869132e+01    7.736820e-01
  2.880245e+01    7.673965e-01
  2.891358e+01    7.644275e-01
  2.902471e+01    7.788996e-01
  2.913583e+01    7.544290e-01
  2.924696e+01    7.464630e-01
  2.935809e+01    7.446111e-01
  2.946922e+01    7.399952e-01
  2.958035e+01    7.255672e-01
  2.969148e+01    7.420491e-01
  2.980261e+01    7.253087e-01
  2.991374e+01    7.096421e-01
  3.002487e+01    7.776327e-01
  3.013600e+01    7.553347e-01
  3.024712e+01    7.419085e-01
  3.035825e+01    7.480910e-01
  3.046938e+01    7.208322e-01
  3.058051e+01    7.277439e-01
  3.069164e+01    7.257867e-01
  3.080277e+01    7.409174e-01
  3.091390e+01    7.169213e-01
  3.102503e+01    7.330638e-01
  3.113616e+01    7.419711e-01
  3.124729e+01    7.484857e-01
  3.135841e+01    7.516583e-01
  3.146954e+01    7.817929e-01
  3.158067e+01    7.878404e-01
  3.169180e+01    8.970090e-01
  3.180293e+01    1.180689e+00
  3.191406e+01    2.206403e+00
  3.202519e+01    2.219289e+00
  3.213632e+01    1.166113e+00
  3.224745e+01    8.867148e-01
  3.235858e+01    8.116416e-01
  3.246970e+01    7.488955e-01
  3.254908e+01    7.535748e-01