File: XRD/Activation ramp/2024-07-27_002_Ru-CGO-ex_Activtation_ramp_000002_data_000106.dat
# == pyFAI calibration ==
# Distance Sample to Detector: 0.4 m
# PONI: 9.750e-02, 1.135e-01 m
# Rotations: -0.000175 0.000000 -0.000000 rad
#
# == Fit2d calibration ==
# Distance Sample-beamCenter: 400.000 mm
# Center: x=1514.000, y=1300.000 pix
# Tilt: 0.010 deg  TiltPlanRot: 0.010 deg
#
# Detector Detector	 Spline= None	 PixelSize= 7.500e-05, 7.500e-05 m
#    Detector has a mask: False
#    Detector has a dark current: False
#    detector has a flat field: False
#
# Wavelength: 6.888e-11 m
# Mask applied: user provided
# Dark current applied: False
# Flat field applied: False
# Polarization factor: 0.99
# Normalization factor: 1.0
# --> /home/myspot/data/2024_07_Rosario/Ru-CGO-ex/2024-07-27_002_Ru-CGO-ex_Activtation_ramp_000002_data_000106.dat
#       q_nm^-1             I
  2.003187e-02    0.000000e+00
  1.311609e-01    5.601354e-02
  2.422899e-01    2.817507e-02
  3.534189e-01    2.897780e-02
  4.645479e-01    3.806237e-02
  5.756770e-01    5.037984e-02
  6.868060e-01    4.716739e-02
  7.979350e-01    1.663387e-01
  9.090640e-01    5.182365e-01
  1.020193e+00    1.085015e+00
  1.131322e+00    1.437674e+00
  1.242451e+00    2.135004e+00
  1.353580e+00    2.584264e+00
  1.464709e+00    2.886093e+00
  1.575838e+00    2.996579e+00
  1.686967e+00    2.741550e+00
  1.798096e+00    2.758602e+00
  1.909225e+00    2.694997e+00
  2.020354e+00    2.841723e+00
  2.131483e+00    2.720534e+00
  2.242612e+00    2.669975e+00
  2.353741e+00    2.687615e+00
  2.464870e+00    2.805737e+00
  2.575999e+00    2.720319e+00
  2.687128e+00    2.788362e+00
  2.798257e+00    2.807475e+00
  2.909386e+00    2.756535e+00
  3.020515e+00    2.801408e+00
  3.131644e+00    2.855960e+00
  3.242773e+00    2.928397e+00
  3.353902e+00    2.828295e+00
  3.465031e+00    2.895931e+00
  3.576160e+00    2.938048e+00
  3.687289e+00    2.881024e+00
  3.798418e+00    2.979947e+00
  3.909547e+00    2.913064e+00
  4.020676e+00    2.970157e+00
  4.131806e+00    2.909281e+00
  4.242935e+00    2.962070e+00
  4.354064e+00    3.096656e+00
  4.465193e+00    3.009115e+00
  4.576322e+00    3.048982e+00
  4.687451e+00    3.003950e+00
  4.798580e+00    3.045966e+00
  4.909709e+00    3.079004e+00
  5.020838e+00    3.071743e+00
  5.131967e+00    3.085790e+00
  5.243096e+00    3.005587e+00
  5.354225e+00    2.967864e+00
  5.465354e+00    3.069958e+00
  5.576483e+00    3.043859e+00
  5.687612e+00    3.021032e+00
  5.798741e+00    2.904981e+00
  5.909870e+00    2.924492e+00
  6.020999e+00    3.025290e+00
  6.132128e+00    3.074794e+00
  6.243257e+00    3.054300e+00
  6.354386e+00    2.903916e+00
  6.465515e+00    3.010962e+00
  6.576644e+00    2.979740e+00
  6.687773e+00    2.972343e+00
  6.798902e+00    3.031089e+00
  6.910031e+00    3.008267e+00
  7.021160e+00    2.963406e+00
  7.132289e+00    3.026808e+00
  7.243418e+00    2.878345e+00
  7.354547e+00    2.948585e+00
  7.465676e+00    2.869262e+00
  7.576805e+00    2.876116e+00
  7.687934e+00    2.893157e+00
  7.799063e+00    2.787975e+00
  7.910192e+00    2.902891e+00
  8.021321e+00    2.894927e+00
  8.132450e+00    2.924606e+00
  8.243579e+00    2.885723e+00
  8.354708e+00    2.816239e+00
  8.465837e+00    2.796875e+00
  8.576966e+00    2.828151e+00
  8.688095e+00    2.830179e+00
  8.799224e+00    2.808285e+00
  8.910353e+00    2.791692e+00
  9.021482e+00    2.790942e+00
  9.132611e+00    2.747203e+00
  9.243740e+00    2.720867e+00
  9.354869e+00    2.722088e+00
  9.465998e+00    2.695379e+00
  9.577127e+00    2.706105e+00
  9.688256e+00    2.790072e+00
  9.799385e+00    2.687480e+00
  9.910514e+00    2.652797e+00
  1.002164e+01    2.649393e+00
  1.013277e+01    2.585956e+00
  1.024390e+01    2.565251e+00
  1.035503e+01    2.575348e+00
  1.046616e+01    2.568178e+00
  1.057729e+01    2.530428e+00
  1.068842e+01    2.529176e+00
  1.079955e+01    2.556020e+00
  1.091068e+01    2.444300e+00
  1.102180e+01    2.501574e+00
  1.113293e+01    2.464762e+00
  1.124406e+01    2.428926e+00
  1.135519e+01    2.381577e+00
  1.146632e+01    2.334520e+00
  1.157745e+01    2.399858e+00
  1.168858e+01    2.352056e+00
  1.179971e+01    2.317860e+00
  1.191084e+01    2.330434e+00
  1.202197e+01    2.270676e+00
  1.213309e+01    2.292667e+00
  1.224422e+01    2.308260e+00
  1.235535e+01    2.320539e+00
  1.246648e+01    2.316864e+00
  1.257761e+01    2.330779e+00
  1.268874e+01    2.451490e+00
  1.279987e+01    2.582571e+00
  1.291100e+01    3.248231e+00
  1.302213e+01    6.024773e+00
  1.313326e+01    1.464855e+01
  1.324438e+01    1.264917e+01
  1.335551e+01    4.460429e+00
  1.346664e+01    2.898637e+00
  1.357777e+01    2.470045e+00
  1.368890e+01    2.260875e+00
  1.380003e+01    2.173756e+00
  1.391116e+01    2.031893e+00
  1.402229e+01    2.019829e+00
  1.413342e+01    2.016658e+00
  1.424455e+01    1.977386e+00
  1.435568e+01    1.898517e+00
  1.446680e+01    1.850569e+00
  1.457793e+01    1.866632e+00
  1.468906e+01    1.939357e+00
  1.480019e+01    1.860489e+00
  1.491132e+01    1.927334e+00
  1.502245e+01    2.170737e+00
  1.513358e+01    3.353762e+00
  1.524471e+01    5.707715e+00
  1.535584e+01    4.013677e+00
  1.546697e+01    2.229689e+00
  1.557809e+01    1.878805e+00
  1.568922e+01    1.743512e+00
  1.580035e+01    1.640617e+00
  1.591148e+01    1.656187e+00
  1.602261e+01    1.593012e+00
  1.613374e+01    1.548512e+00
  1.624487e+01    1.558345e+00
  1.635600e+01    1.504100e+00
  1.646713e+01    1.504601e+00
  1.657826e+01    1.458204e+00
  1.668938e+01    1.452831e+00
  1.680051e+01    1.416523e+00
  1.691164e+01    1.428489e+00
  1.702277e+01    1.393824e+00
  1.713390e+01    1.381344e+00
  1.724503e+01    1.356927e+00
  1.735616e+01    1.388599e+00
  1.746729e+01    1.336707e+00
  1.757842e+01    1.360836e+00
  1.768955e+01    1.299817e+00
  1.780067e+01    1.313583e+00
  1.791180e+01    1.291225e+00
  1.802293e+01    1.283965e+00
  1.813406e+01    1.277018e+00
  1.824519e+01    1.257440e+00
  1.835632e+01    1.267691e+00
  1.846745e+01    1.230349e+00
  1.857858e+01    1.224626e+00
  1.868971e+01    1.209841e+00
  1.880084e+01    1.216464e+00
  1.891196e+01    1.219305e+00
  1.902309e+01    1.188499e+00
  1.913422e+01    1.192561e+00
  1.924535e+01    1.166006e+00
  1.935648e+01    1.180591e+00
  1.946761e+01    1.139825e+00
  1.957874e+01    1.108201e+00
  1.968987e+01    1.104216e+00
  1.980100e+01    1.122748e+00
  1.991213e+01    1.101979e+00
  2.002325e+01    1.075803e+00
  2.013438e+01    1.099739e+00
  2.024551e+01    1.058168e+00
  2.035664e+01    1.077042e+00
  2.046777e+01    1.056992e+00
  2.057890e+01    1.078549e+00
  2.069003e+01    1.091326e+00
  2.080116e+01    1.078859e+00
  2.091229e+01    1.060139e+00
  2.102342e+01    1.066719e+00
  2.113455e+01    1.076129e+00
  2.124567e+01    1.096910e+00
  2.135680e+01    1.142470e+00
  2.146793e+01    1.198888e+00
  2.157906e+01    1.461671e+00
  2.169019e+01    2.230988e+00
  2.180132e+01    5.270300e+00
  2.191245e+01    9.739252e+00
  2.202358e+01    4.275688e+00
  2.213471e+01    1.908514e+00
  2.224584e+01    1.317758e+00
  2.235696e+01    1.132163e+00
  2.246809e+01    1.057221e+00
  2.257922e+01    9.725751e-01
  2.269035e+01    9.415522e-01
  2.280148e+01    9.438183e-01
  2.291261e+01    8.954723e-01
  2.302374e+01    8.711408e-01
  2.313487e+01    8.506022e-01
  2.324600e+01    8.582815e-01
  2.335713e+01    8.452561e-01
  2.346825e+01    8.463820e-01
  2.357938e+01    8.417709e-01
  2.369051e+01    8.115634e-01
  2.380164e+01    8.108831e-01
  2.391277e+01    7.862281e-01
  2.402390e+01    7.946793e-01
  2.413503e+01    7.754362e-01
  2.424616e+01    7.784511e-01
  2.435729e+01    7.870048e-01
  2.446842e+01    8.068983e-01
  2.457954e+01    7.829060e-01
  2.469067e+01    7.879289e-01
  2.480180e+01    8.051437e-01
  2.491293e+01    8.019693e-01
  2.502406e+01    7.930267e-01
  2.513519e+01    8.351665e-01
  2.524632e+01    8.172566e-01
  2.535745e+01    8.543675e-01
  2.546858e+01    9.315266e-01
  2.557971e+01    1.057145e+00
  2.569083e+01    1.334973e+00
  2.580196e+01    2.492972e+00
  2.591309e+01    6.108783e+00
  2.602422e+01    6.814634e+00
  2.613535e+01    2.487559e+00
  2.624648e+01    1.402853e+00
  2.635761e+01    1.050681e+00
  2.646874e+01    9.352863e-01
  2.657987e+01    8.948649e-01
  2.669100e+01    8.931247e-01
  2.680212e+01    8.851256e-01
  2.691325e+01    9.256769e-01
  2.702438e+01    1.033056e+00
  2.713551e+01    1.577914e+00
  2.724664e+01    2.309628e+00
  2.735777e+01    1.356864e+00
  2.746890e+01    9.830942e-01
  2.758003e+01    8.760999e-01
  2.769116e+01    8.122140e-01
  2.780229e+01    8.131086e-01
  2.791342e+01    7.670719e-01
  2.802454e+01    7.788255e-01
  2.813567e+01    7.931061e-01
  2.824680e+01    7.680361e-01
  2.835793e+01    7.660753e-01
  2.846906e+01    7.467337e-01
  2.858019e+01    7.163721e-01
  2.869132e+01    7.357383e-01
  2.880245e+01    7.178317e-01
  2.891358e+01    7.474261e-01
  2.902471e+01    7.376366e-01
  2.913583e+01    7.419727e-01
  2.924696e+01    7.487881e-01
  2.935809e+01    7.154703e-01
  2.946922e+01    7.205092e-01
  2.958035e+01    7.090663e-01
  2.969148e+01    7.262240e-01
  2.980261e+01    7.030728e-01
  2.991374e+01    7.062719e-01
  3.002487e+01    7.186078e-01
  3.013600e+01    7.180260e-01
  3.024712e+01    7.213719e-01
  3.035825e+01    7.038046e-01
  3.046938e+01    7.119812e-01
  3.058051e+01    6.966487e-01
  3.069164e+01    6.939678e-01
  3.080277e+01    7.052776e-01
  3.091390e+01    7.112548e-01
  3.102503e+01    6.992131e-01
  3.113616e+01    6.944355e-01
  3.124729e+01    7.354050e-01
  3.135841e+01    7.298185e-01
  3.146954e+01    7.605633e-01
  3.158067e+01    7.687896e-01
  3.169180e+01    9.006648e-01
  3.180293e+01    1.306610e+00
  3.191406e+01    2.253447e+00
  3.202519e+01    1.531248e+00
  3.213632e+01    9.528476e-01
  3.224745e+01    8.039639e-01
  3.235858e+01    7.515723e-01
  3.246970e+01    7.494819e-01
  3.254908e+01    7.054263e-01