File: XRD/Activation ramp/2024-07-27_002_Ru-CGO-ex_Activtation_ramp_000002_data_000128.dat
# == pyFAI calibration ==
# Distance Sample to Detector: 0.4 m
# PONI: 9.750e-02, 1.135e-01 m
# Rotations: -0.000175 0.000000 -0.000000 rad
#
# == Fit2d calibration ==
# Distance Sample-beamCenter: 400.000 mm
# Center: x=1514.000, y=1300.000 pix
# Tilt: 0.010 deg  TiltPlanRot: 0.010 deg
#
# Detector Detector	 Spline= None	 PixelSize= 7.500e-05, 7.500e-05 m
#    Detector has a mask: False
#    Detector has a dark current: False
#    detector has a flat field: False
#
# Wavelength: 6.888e-11 m
# Mask applied: user provided
# Dark current applied: False
# Flat field applied: False
# Polarization factor: 0.99
# Normalization factor: 1.0
# --> /home/myspot/data/2024_07_Rosario/Ru-CGO-ex/2024-07-27_002_Ru-CGO-ex_Activtation_ramp_000002_data_000128.dat
#       q_nm^-1             I
  2.003187e-02    0.000000e+00
  1.311609e-01    7.586783e-02
  2.422899e-01    7.265461e-02
  3.534189e-01    3.000207e-02
  4.645479e-01    3.872224e-02
  5.756770e-01    6.055442e-02
  6.868060e-01    3.166610e-02
  7.979350e-01    1.556320e-01
  9.090640e-01    5.925391e-01
  1.020193e+00    1.120144e+00
  1.131322e+00    1.383165e+00
  1.242451e+00    2.127997e+00
  1.353580e+00    2.405057e+00
  1.464709e+00    2.754182e+00
  1.575838e+00    2.926732e+00
  1.686967e+00    2.823399e+00
  1.798096e+00    2.768194e+00
  1.909225e+00    2.699402e+00
  2.020354e+00    2.635451e+00
  2.131483e+00    2.693524e+00
  2.242612e+00    2.699468e+00
  2.353741e+00    2.751765e+00
  2.464870e+00    2.780428e+00
  2.575999e+00    2.848582e+00
  2.687128e+00    2.775994e+00
  2.798257e+00    2.786252e+00
  2.909386e+00    2.832288e+00
  3.020515e+00    2.859352e+00
  3.131644e+00    2.792700e+00
  3.242773e+00    2.861223e+00
  3.353902e+00    2.854726e+00
  3.465031e+00    2.932039e+00
  3.576160e+00    3.023259e+00
  3.687289e+00    2.912939e+00
  3.798418e+00    2.990282e+00
  3.909547e+00    2.966780e+00
  4.020676e+00    2.966888e+00
  4.131806e+00    3.059056e+00
  4.242935e+00    2.989752e+00
  4.354064e+00    3.022065e+00
  4.465193e+00    3.010235e+00
  4.576322e+00    3.057625e+00
  4.687451e+00    2.940567e+00
  4.798580e+00    3.027154e+00
  4.909709e+00    3.035632e+00
  5.020838e+00    3.066045e+00
  5.131967e+00    3.108121e+00
  5.243096e+00    3.109161e+00
  5.354225e+00    3.152655e+00
  5.465354e+00    3.059581e+00
  5.576483e+00    3.098549e+00
  5.687612e+00    3.060770e+00
  5.798741e+00    3.025228e+00
  5.909870e+00    3.061990e+00
  6.020999e+00    2.974489e+00
  6.132128e+00    3.034095e+00
  6.243257e+00    2.938782e+00
  6.354386e+00    3.098123e+00
  6.465515e+00    2.935105e+00
  6.576644e+00    3.056638e+00
  6.687773e+00    3.082279e+00
  6.798902e+00    3.002778e+00
  6.910031e+00    2.986820e+00
  7.021160e+00    3.004134e+00
  7.132289e+00    2.941362e+00
  7.243418e+00    2.975384e+00
  7.354547e+00    2.983829e+00
  7.465676e+00    2.941905e+00
  7.576805e+00    2.901732e+00
  7.687934e+00    2.890944e+00
  7.799063e+00    2.985199e+00
  7.910192e+00    2.878281e+00
  8.021321e+00    2.928207e+00
  8.132450e+00    2.893219e+00
  8.243579e+00    3.001648e+00
  8.354708e+00    2.870337e+00
  8.465837e+00    2.852089e+00
  8.576966e+00    2.898361e+00
  8.688095e+00    2.854760e+00
  8.799224e+00    2.803221e+00
  8.910353e+00    2.747273e+00
  9.021482e+00    2.799561e+00
  9.132611e+00    2.767784e+00
  9.243740e+00    2.802222e+00
  9.354869e+00    2.766253e+00
  9.465998e+00    2.722911e+00
  9.577127e+00    2.724877e+00
  9.688256e+00    2.742641e+00
  9.799385e+00    2.652692e+00
  9.910514e+00    2.613264e+00
  1.002164e+01    2.666564e+00
  1.013277e+01    2.624668e+00
  1.024390e+01    2.649478e+00
  1.035503e+01    2.558936e+00
  1.046616e+01    2.587851e+00
  1.057729e+01    2.552274e+00
  1.068842e+01    2.494497e+00
  1.079955e+01    2.537504e+00
  1.091068e+01    2.438577e+00
  1.102180e+01    2.466102e+00
  1.113293e+01    2.452419e+00
  1.124406e+01    2.462542e+00
  1.135519e+01    2.423236e+00
  1.146632e+01    2.377649e+00
  1.157745e+01    2.411433e+00
  1.168858e+01    2.355053e+00
  1.179971e+01    2.347908e+00
  1.191084e+01    2.294998e+00
  1.202197e+01    2.342225e+00
  1.213309e+01    2.286517e+00
  1.224422e+01    2.302331e+00
  1.235535e+01    2.320868e+00
  1.246648e+01    2.256912e+00
  1.257761e+01    2.331650e+00
  1.268874e+01    2.420398e+00
  1.279987e+01    2.629366e+00
  1.291100e+01    3.249172e+00
  1.302213e+01    6.064645e+00
  1.313326e+01    1.450011e+01
  1.324438e+01    1.214725e+01
  1.335551e+01    4.416783e+00
  1.346664e+01    2.868590e+00
  1.357777e+01    2.480199e+00
  1.368890e+01    2.261587e+00
  1.380003e+01    2.124483e+00
  1.391116e+01    2.108842e+00
  1.402229e+01    1.994543e+00
  1.413342e+01    1.977732e+00
  1.424455e+01    1.920724e+00
  1.435568e+01    1.914056e+00
  1.446680e+01    1.934679e+00
  1.457793e+01    1.880015e+00
  1.468906e+01    1.914988e+00
  1.480019e+01    1.908996e+00
  1.491132e+01    1.983412e+00
  1.502245e+01    2.208738e+00
  1.513358e+01    3.430433e+00
  1.524471e+01    5.704949e+00
  1.535584e+01    3.946758e+00
  1.546697e+01    2.222748e+00
  1.557809e+01    1.873205e+00
  1.568922e+01    1.742114e+00
  1.580035e+01    1.702325e+00
  1.591148e+01    1.651867e+00
  1.602261e+01    1.590594e+00
  1.613374e+01    1.551396e+00
  1.624487e+01    1.570375e+00
  1.635600e+01    1.534885e+00
  1.646713e+01    1.532411e+00
  1.657826e+01    1.481469e+00
  1.668938e+01    1.458645e+00
  1.680051e+01    1.477190e+00
  1.691164e+01    1.462035e+00
  1.702277e+01    1.420188e+00
  1.713390e+01    1.401074e+00
  1.724503e+01    1.384951e+00
  1.735616e+01    1.379278e+00
  1.746729e+01    1.337720e+00
  1.757842e+01    1.346797e+00
  1.768955e+01    1.328658e+00
  1.780067e+01    1.319311e+00
  1.791180e+01    1.305432e+00
  1.802293e+01    1.292122e+00
  1.813406e+01    1.273763e+00
  1.824519e+01    1.281700e+00
  1.835632e+01    1.254282e+00
  1.846745e+01    1.248647e+00
  1.857858e+01    1.200813e+00
  1.868971e+01    1.205854e+00
  1.880084e+01    1.226995e+00
  1.891196e+01    1.200712e+00
  1.902309e+01    1.161108e+00
  1.913422e+01    1.191768e+00
  1.924535e+01    1.171837e+00
  1.935648e+01    1.165348e+00
  1.946761e+01    1.161907e+00
  1.957874e+01    1.121971e+00
  1.968987e+01    1.127899e+00
  1.980100e+01    1.142028e+00
  1.991213e+01    1.092682e+00
  2.002325e+01    1.117897e+00
  2.013438e+01    1.087720e+00
  2.024551e+01    1.083230e+00
  2.035664e+01    1.091992e+00
  2.046777e+01    1.077933e+00
  2.057890e+01    1.070544e+00
  2.069003e+01    1.077695e+00
  2.080116e+01    1.079612e+00
  2.091229e+01    1.068842e+00
  2.102342e+01    1.090876e+00
  2.113455e+01    1.097831e+00
  2.124567e+01    1.100134e+00
  2.135680e+01    1.117732e+00
  2.146793e+01    1.215795e+00
  2.157906e+01    1.473765e+00
  2.169019e+01    2.253989e+00
  2.180132e+01    5.374934e+00
  2.191245e+01    9.462505e+00
  2.202358e+01    4.007010e+00
  2.213471e+01    1.860024e+00
  2.224584e+01    1.315689e+00
  2.235696e+01    1.098841e+00
  2.246809e+01    1.028803e+00
  2.257922e+01    9.917993e-01
  2.269035e+01    9.403843e-01
  2.280148e+01    9.351090e-01
  2.291261e+01    9.055789e-01
  2.302374e+01    8.918833e-01
  2.313487e+01    8.976539e-01
  2.324600e+01    8.533563e-01
  2.335713e+01    8.530367e-01
  2.346825e+01    8.399057e-01
  2.357938e+01    8.533406e-01
  2.369051e+01    8.263275e-01
  2.380164e+01    8.048301e-01
  2.391277e+01    7.874981e-01
  2.402390e+01    7.883250e-01
  2.413503e+01    7.666270e-01
  2.424616e+01    7.772502e-01
  2.435729e+01    7.944115e-01
  2.446842e+01    7.674803e-01
  2.457954e+01    7.812133e-01
  2.469067e+01    7.767144e-01
  2.480180e+01    8.111861e-01
  2.491293e+01    7.974376e-01
  2.502406e+01    7.913970e-01
  2.513519e+01    8.174240e-01
  2.524632e+01    8.430085e-01
  2.535745e+01    8.611086e-01
  2.546858e+01    9.245487e-01
  2.557971e+01    1.074829e+00
  2.569083e+01    1.409592e+00
  2.580196e+01    2.535357e+00
  2.591309e+01    6.194231e+00
  2.602422e+01    6.423470e+00
  2.613535e+01    2.338937e+00
  2.624648e+01    1.352297e+00
  2.635761e+01    1.051591e+00
  2.646874e+01    9.751722e-01
  2.657987e+01    9.263971e-01
  2.669100e+01    8.738613e-01
  2.680212e+01    8.811900e-01
  2.691325e+01    9.233876e-01
  2.702438e+01    1.054862e+00
  2.713551e+01    1.562556e+00
  2.724664e+01    2.243054e+00
  2.735777e+01    1.340557e+00
  2.746890e+01    9.621764e-01
  2.758003e+01    8.684648e-01
  2.769116e+01    8.199983e-01
  2.780229e+01    7.985913e-01
  2.791342e+01    7.889798e-01
  2.802454e+01    7.889022e-01
  2.813567e+01    7.771170e-01
  2.824680e+01    7.615258e-01
  2.835793e+01    7.561955e-01
  2.846906e+01    7.570379e-01
  2.858019e+01    7.388933e-01
  2.869132e+01    7.484823e-01
  2.880245e+01    7.434162e-01
  2.891358e+01    7.454216e-01
  2.902471e+01    7.336889e-01
  2.913583e+01    7.266771e-01
  2.924696e+01    7.241574e-01
  2.935809e+01    7.145946e-01
  2.946922e+01    7.116320e-01
  2.958035e+01    7.153488e-01
  2.969148e+01    7.172412e-01
  2.980261e+01    7.004061e-01
  2.991374e+01    7.246242e-01
  3.002487e+01    7.253426e-01
  3.013600e+01    7.361600e-01
  3.024712e+01    6.824433e-01
  3.035825e+01    6.837058e-01
  3.046938e+01    6.997298e-01
  3.058051e+01    6.990361e-01
  3.069164e+01    6.959101e-01
  3.080277e+01    7.134639e-01
  3.091390e+01    7.024856e-01
  3.102503e+01    7.370384e-01
  3.113616e+01    7.198957e-01
  3.124729e+01    7.495002e-01
  3.135841e+01    7.157626e-01
  3.146954e+01    7.442964e-01
  3.158067e+01    7.600424e-01
  3.169180e+01    9.101424e-01
  3.180293e+01    1.336345e+00
  3.191406e+01    2.286536e+00
  3.202519e+01    1.469151e+00
  3.213632e+01    9.340210e-01
  3.224745e+01    7.960696e-01
  3.235858e+01    7.356256e-01
  3.246970e+01    7.175456e-01
  3.254908e+01    7.237095e-01