File: XRD/Activation ramp/2024-07-27_002_Ru-CGO-ex_Activtation_ramp_000002_data_000133.dat
# == pyFAI calibration ==
# Distance Sample to Detector: 0.4 m
# PONI: 9.750e-02, 1.135e-01 m
# Rotations: -0.000175 0.000000 -0.000000 rad
#
# == Fit2d calibration ==
# Distance Sample-beamCenter: 400.000 mm
# Center: x=1514.000, y=1300.000 pix
# Tilt: 0.010 deg  TiltPlanRot: 0.010 deg
#
# Detector Detector	 Spline= None	 PixelSize= 7.500e-05, 7.500e-05 m
#    Detector has a mask: False
#    Detector has a dark current: False
#    detector has a flat field: False
#
# Wavelength: 6.888e-11 m
# Mask applied: user provided
# Dark current applied: False
# Flat field applied: False
# Polarization factor: 0.99
# Normalization factor: 1.0
# --> /home/myspot/data/2024_07_Rosario/Ru-CGO-ex/2024-07-27_002_Ru-CGO-ex_Activtation_ramp_000002_data_000133.dat
#       q_nm^-1             I
  2.003187e-02    2.226973e-02
  1.311609e-01    3.211923e-02
  2.422899e-01    3.266953e-02
  3.534189e-01    4.363256e-02
  4.645479e-01    4.272827e-02
  5.756770e-01    6.044523e-02
  6.868060e-01    4.764091e-02
  7.979350e-01    1.500929e-01
  9.090640e-01    5.266990e-01
  1.020193e+00    1.169472e+00
  1.131322e+00    1.516623e+00
  1.242451e+00    2.221952e+00
  1.353580e+00    2.682601e+00
  1.464709e+00    2.691655e+00
  1.575838e+00    3.040255e+00
  1.686967e+00    2.752575e+00
  1.798096e+00    2.823787e+00
  1.909225e+00    2.748366e+00
  2.020354e+00    2.686904e+00
  2.131483e+00    2.731198e+00
  2.242612e+00    2.625596e+00
  2.353741e+00    2.711453e+00
  2.464870e+00    2.750153e+00
  2.575999e+00    2.728228e+00
  2.687128e+00    2.740758e+00
  2.798257e+00    2.814580e+00
  2.909386e+00    2.870279e+00
  3.020515e+00    2.863964e+00
  3.131644e+00    2.881815e+00
  3.242773e+00    2.938298e+00
  3.353902e+00    2.991837e+00
  3.465031e+00    2.918532e+00
  3.576160e+00    2.970576e+00
  3.687289e+00    2.923259e+00
  3.798418e+00    2.963325e+00
  3.909547e+00    2.928232e+00
  4.020676e+00    3.009149e+00
  4.131806e+00    3.018346e+00
  4.242935e+00    3.088738e+00
  4.354064e+00    3.071522e+00
  4.465193e+00    3.013186e+00
  4.576322e+00    3.087124e+00
  4.687451e+00    3.034323e+00
  4.798580e+00    3.037669e+00
  4.909709e+00    3.085334e+00
  5.020838e+00    3.002780e+00
  5.131967e+00    3.055924e+00
  5.243096e+00    3.081341e+00
  5.354225e+00    3.133296e+00
  5.465354e+00    3.040788e+00
  5.576483e+00    3.040249e+00
  5.687612e+00    3.017459e+00
  5.798741e+00    2.979017e+00
  5.909870e+00    2.976794e+00
  6.020999e+00    3.004167e+00
  6.132128e+00    3.042498e+00
  6.243257e+00    3.032030e+00
  6.354386e+00    2.940726e+00
  6.465515e+00    3.005357e+00
  6.576644e+00    3.020867e+00
  6.687773e+00    2.970409e+00
  6.798902e+00    2.973670e+00
  6.910031e+00    3.027232e+00
  7.021160e+00    2.938472e+00
  7.132289e+00    3.032658e+00
  7.243418e+00    3.000040e+00
  7.354547e+00    3.060655e+00
  7.465676e+00    2.943461e+00
  7.576805e+00    2.992954e+00
  7.687934e+00    2.952841e+00
  7.799063e+00    2.971779e+00
  7.910192e+00    2.942384e+00
  8.021321e+00    2.868344e+00
  8.132450e+00    2.918271e+00
  8.243579e+00    2.961550e+00
  8.354708e+00    2.916666e+00
  8.465837e+00    2.856488e+00
  8.576966e+00    2.878753e+00
  8.688095e+00    2.859195e+00
  8.799224e+00    2.810961e+00
  8.910353e+00    2.831633e+00
  9.021482e+00    2.733947e+00
  9.132611e+00    2.750664e+00
  9.243740e+00    2.751559e+00
  9.354869e+00    2.724797e+00
  9.465998e+00    2.782269e+00
  9.577127e+00    2.710783e+00
  9.688256e+00    2.708814e+00
  9.799385e+00    2.635818e+00
  9.910514e+00    2.687891e+00
  1.002164e+01    2.661523e+00
  1.013277e+01    2.589272e+00
  1.024390e+01    2.588072e+00
  1.035503e+01    2.566547e+00
  1.046616e+01    2.585291e+00
  1.057729e+01    2.588565e+00
  1.068842e+01    2.518330e+00
  1.079955e+01    2.526775e+00
  1.091068e+01    2.436540e+00
  1.102180e+01    2.483737e+00
  1.113293e+01    2.429227e+00
  1.124406e+01    2.416490e+00
  1.135519e+01    2.387659e+00
  1.146632e+01    2.417619e+00
  1.157745e+01    2.449155e+00
  1.168858e+01    2.422586e+00
  1.179971e+01    2.301469e+00
  1.191084e+01    2.315879e+00
  1.202197e+01    2.286465e+00
  1.213309e+01    2.277441e+00
  1.224422e+01    2.307013e+00
  1.235535e+01    2.276278e+00
  1.246648e+01    2.339478e+00
  1.257761e+01    2.397599e+00
  1.268874e+01    2.463664e+00
  1.279987e+01    2.647385e+00
  1.291100e+01    3.363826e+00
  1.302213e+01    6.311289e+00
  1.313326e+01    1.468304e+01
  1.324438e+01    1.149343e+01
  1.335551e+01    4.318150e+00
  1.346664e+01    2.845431e+00
  1.357777e+01    2.456006e+00
  1.368890e+01    2.245166e+00
  1.380003e+01    2.194203e+00
  1.391116e+01    2.034917e+00
  1.402229e+01    2.001453e+00
  1.413342e+01    1.963727e+00
  1.424455e+01    1.963309e+00
  1.435568e+01    1.910889e+00
  1.446680e+01    1.963141e+00
  1.457793e+01    1.940653e+00
  1.468906e+01    1.883592e+00
  1.480019e+01    1.912951e+00
  1.491132e+01    1.933334e+00
  1.502245e+01    2.237767e+00
  1.513358e+01    3.478657e+00
  1.524471e+01    5.712496e+00
  1.535584e+01    3.701872e+00
  1.546697e+01    2.229297e+00
  1.557809e+01    1.868743e+00
  1.568922e+01    1.740690e+00
  1.580035e+01    1.651205e+00
  1.591148e+01    1.674568e+00
  1.602261e+01    1.616401e+00
  1.613374e+01    1.573974e+00
  1.624487e+01    1.539139e+00
  1.635600e+01    1.538210e+00
  1.646713e+01    1.526935e+00
  1.657826e+01    1.484322e+00
  1.668938e+01    1.471148e+00
  1.680051e+01    1.468652e+00
  1.691164e+01    1.413889e+00
  1.702277e+01    1.401019e+00
  1.713390e+01    1.421741e+00
  1.724503e+01    1.390739e+00
  1.735616e+01    1.352781e+00
  1.746729e+01    1.350327e+00
  1.757842e+01    1.361832e+00
  1.768955e+01    1.316696e+00
  1.780067e+01    1.344246e+00
  1.791180e+01    1.308137e+00
  1.802293e+01    1.295002e+00
  1.813406e+01    1.279816e+00
  1.824519e+01    1.267357e+00
  1.835632e+01    1.232682e+00
  1.846745e+01    1.242116e+00
  1.857858e+01    1.219955e+00
  1.868971e+01    1.230778e+00
  1.880084e+01    1.205649e+00
  1.891196e+01    1.184623e+00
  1.902309e+01    1.192225e+00
  1.913422e+01    1.175340e+00
  1.924535e+01    1.145239e+00
  1.935648e+01    1.170629e+00
  1.946761e+01    1.145129e+00
  1.957874e+01    1.152817e+00
  1.968987e+01    1.143301e+00
  1.980100e+01    1.115043e+00
  1.991213e+01    1.099465e+00
  2.002325e+01    1.117405e+00
  2.013438e+01    1.081733e+00
  2.024551e+01    1.120785e+00
  2.035664e+01    1.069100e+00
  2.046777e+01    1.083251e+00
  2.057890e+01    1.079124e+00
  2.069003e+01    1.088475e+00
  2.080116e+01    1.067119e+00
  2.091229e+01    1.062430e+00
  2.102342e+01    1.045474e+00
  2.113455e+01    1.079724e+00
  2.124567e+01    1.082561e+00
  2.135680e+01    1.156457e+00
  2.146793e+01    1.214200e+00
  2.157906e+01    1.468147e+00
  2.169019e+01    2.367799e+00
  2.180132e+01    5.658894e+00
  2.191245e+01    9.304888e+00
  2.202358e+01    3.812717e+00
  2.213471e+01    1.800714e+00
  2.224584e+01    1.305024e+00
  2.235696e+01    1.127705e+00
  2.246809e+01    1.015221e+00
  2.257922e+01    9.965477e-01
  2.269035e+01    9.481124e-01
  2.280148e+01    9.048283e-01
  2.291261e+01    9.027394e-01
  2.302374e+01    8.929139e-01
  2.313487e+01    8.677684e-01
  2.324600e+01    8.525136e-01
  2.335713e+01    8.793023e-01
  2.346825e+01    8.360019e-01
  2.357938e+01    8.483781e-01
  2.369051e+01    8.256459e-01
  2.380164e+01    8.069186e-01
  2.391277e+01    8.044294e-01
  2.402390e+01    7.782884e-01
  2.413503e+01    7.738028e-01
  2.424616e+01    7.631533e-01
  2.435729e+01    7.669343e-01
  2.446842e+01    8.150852e-01
  2.457954e+01    7.802575e-01
  2.469067e+01    7.954484e-01
  2.480180e+01    7.951881e-01
  2.491293e+01    7.918086e-01
  2.502406e+01    8.068936e-01
  2.513519e+01    8.138650e-01
  2.524632e+01    8.568378e-01
  2.535745e+01    8.684537e-01
  2.546858e+01    9.490928e-01
  2.557971e+01    1.060461e+00
  2.569083e+01    1.393800e+00
  2.580196e+01    2.656305e+00
  2.591309e+01    6.433547e+00
  2.602422e+01    6.019827e+00
  2.613535e+01    2.223847e+00
  2.624648e+01    1.291941e+00
  2.635761e+01    1.026710e+00
  2.646874e+01    9.396270e-01
  2.657987e+01    9.035547e-01
  2.669100e+01    8.938023e-01
  2.680212e+01    8.875833e-01
  2.691325e+01    9.204211e-01
  2.702438e+01    1.050397e+00
  2.713551e+01    1.661323e+00
  2.724664e+01    2.210353e+00
  2.735777e+01    1.265308e+00
  2.746890e+01    9.541081e-01
  2.758003e+01    8.481797e-01
  2.769116e+01    8.276550e-01
  2.780229e+01    8.195186e-01
  2.791342e+01    7.739602e-01
  2.802454e+01    7.744229e-01
  2.813567e+01    7.741380e-01
  2.824680e+01    7.694473e-01
  2.835793e+01    7.565308e-01
  2.846906e+01    7.422196e-01
  2.858019e+01    7.676603e-01
  2.869132e+01    7.458282e-01
  2.880245e+01    7.479284e-01
  2.891358e+01    7.453883e-01
  2.902471e+01    7.263606e-01
  2.913583e+01    7.406840e-01
  2.924696e+01    7.267895e-01
  2.935809e+01    7.045015e-01
  2.946922e+01    7.224339e-01
  2.958035e+01    7.282194e-01
  2.969148e+01    7.329876e-01
  2.980261e+01    6.988109e-01
  2.991374e+01    7.125015e-01
  3.002487e+01    7.325575e-01
  3.013600e+01    7.201573e-01
  3.024712e+01    6.905841e-01
  3.035825e+01    7.049276e-01
  3.046938e+01    7.093142e-01
  3.058051e+01    7.008980e-01
  3.069164e+01    6.911680e-01
  3.080277e+01    7.211428e-01
  3.091390e+01    7.118365e-01
  3.102503e+01    7.307107e-01
  3.113616e+01    7.315355e-01
  3.124729e+01    7.315214e-01
  3.135841e+01    7.299525e-01
  3.146954e+01    7.510507e-01
  3.158067e+01    7.914223e-01
  3.169180e+01    9.411017e-01
  3.180293e+01    1.417685e+00
  3.191406e+01    2.282535e+00
  3.202519e+01    1.389748e+00
  3.213632e+01    8.852462e-01
  3.224745e+01    7.942028e-01
  3.235858e+01    7.580302e-01
  3.246970e+01    7.297094e-01
  3.254908e+01    6.992698e-01