File: XRD/Activation ramp/2024-07-27_002_Ru-CGO-ex_Activtation_ramp_000002_data_000041.dat
# == pyFAI calibration ==
# Distance Sample to Detector: 0.4 m
# PONI: 9.750e-02, 1.135e-01 m
# Rotations: -0.000175 0.000000 -0.000000 rad
#
# == Fit2d calibration ==
# Distance Sample-beamCenter: 400.000 mm
# Center: x=1514.000, y=1300.000 pix
# Tilt: 0.010 deg  TiltPlanRot: 0.010 deg
#
# Detector Detector	 Spline= None	 PixelSize= 7.500e-05, 7.500e-05 m
#    Detector has a mask: False
#    Detector has a dark current: False
#    detector has a flat field: False
#
# Wavelength: 6.888e-11 m
# Mask applied: user provided
# Dark current applied: False
# Flat field applied: False
# Polarization factor: 0.99
# Normalization factor: 1.0
# --> /home/myspot/data/2024_07_Rosario/Ru-CGO-ex/2024-07-27_002_Ru-CGO-ex_Activtation_ramp_000002_data_000041.dat
#       q_nm^-1             I
  2.003187e-02    1.542422e-01
  1.311609e-01    0.000000e+00
  2.422899e-01    5.749959e-02
  3.534189e-01    2.949231e-02
  4.645479e-01    2.748089e-02
  5.756770e-01    3.035558e-02
  6.868060e-01    4.071840e-02
  7.979350e-01    1.229678e-01
  9.090640e-01    5.897386e-01
  1.020193e+00    1.118118e+00
  1.131322e+00    1.319543e+00
  1.242451e+00    2.203567e+00
  1.353580e+00    2.635932e+00
  1.464709e+00    2.773238e+00
  1.575838e+00    2.915266e+00
  1.686967e+00    2.954072e+00
  1.798096e+00    2.921202e+00
  1.909225e+00    2.806266e+00
  2.020354e+00    2.808428e+00
  2.131483e+00    2.869736e+00
  2.242612e+00    2.763846e+00
  2.353741e+00    2.804305e+00
  2.464870e+00    2.895514e+00
  2.575999e+00    2.868967e+00
  2.687128e+00    2.793468e+00
  2.798257e+00    2.781911e+00
  2.909386e+00    2.909494e+00
  3.020515e+00    2.890919e+00
  3.131644e+00    2.896303e+00
  3.242773e+00    2.987482e+00
  3.353902e+00    2.866269e+00
  3.465031e+00    2.936728e+00
  3.576160e+00    3.019652e+00
  3.687289e+00    2.981711e+00
  3.798418e+00    3.024499e+00
  3.909547e+00    2.905590e+00
  4.020676e+00    3.032452e+00
  4.131806e+00    2.998942e+00
  4.242935e+00    3.064057e+00
  4.354064e+00    2.955796e+00
  4.465193e+00    3.025060e+00
  4.576322e+00    3.064357e+00
  4.687451e+00    3.084643e+00
  4.798580e+00    3.136903e+00
  4.909709e+00    3.015919e+00
  5.020838e+00    3.068688e+00
  5.131967e+00    3.132079e+00
  5.243096e+00    3.177440e+00
  5.354225e+00    3.107151e+00
  5.465354e+00    3.055153e+00
  5.576483e+00    3.142416e+00
  5.687612e+00    3.078941e+00
  5.798741e+00    3.102053e+00
  5.909870e+00    2.992420e+00
  6.020999e+00    3.066877e+00
  6.132128e+00    3.049706e+00
  6.243257e+00    3.092637e+00
  6.354386e+00    3.083943e+00
  6.465515e+00    3.018033e+00
  6.576644e+00    2.964821e+00
  6.687773e+00    2.998708e+00
  6.798902e+00    3.027934e+00
  6.910031e+00    2.916427e+00
  7.021160e+00    2.945551e+00
  7.132289e+00    2.995030e+00
  7.243418e+00    3.013972e+00
  7.354547e+00    2.992803e+00
  7.465676e+00    3.038468e+00
  7.576805e+00    3.012337e+00
  7.687934e+00    2.939607e+00
  7.799063e+00    2.937700e+00
  7.910192e+00    2.902550e+00
  8.021321e+00    2.993954e+00
  8.132450e+00    2.876503e+00
  8.243579e+00    2.895280e+00
  8.354708e+00    2.929203e+00
  8.465837e+00    2.945810e+00
  8.576966e+00    2.865188e+00
  8.688095e+00    2.937723e+00
  8.799224e+00    2.851902e+00
  8.910353e+00    2.830837e+00
  9.021482e+00    2.889567e+00
  9.132611e+00    2.759264e+00
  9.243740e+00    2.767876e+00
  9.354869e+00    2.784119e+00
  9.465998e+00    2.750957e+00
  9.577127e+00    2.760204e+00
  9.688256e+00    2.716182e+00
  9.799385e+00    2.708024e+00
  9.910514e+00    2.714731e+00
  1.002164e+01    2.750648e+00
  1.013277e+01    2.625559e+00
  1.024390e+01    2.665889e+00
  1.035503e+01    2.635032e+00
  1.046616e+01    2.546860e+00
  1.057729e+01    2.616725e+00
  1.068842e+01    2.542922e+00
  1.079955e+01    2.504558e+00
  1.091068e+01    2.587568e+00
  1.102180e+01    2.472502e+00
  1.113293e+01    2.492331e+00
  1.124406e+01    2.480211e+00
  1.135519e+01    2.444417e+00
  1.146632e+01    2.463198e+00
  1.157745e+01    2.426369e+00
  1.168858e+01    2.353949e+00
  1.179971e+01    2.383574e+00
  1.191084e+01    2.362339e+00
  1.202197e+01    2.343481e+00
  1.213309e+01    2.318097e+00
  1.224422e+01    2.336690e+00
  1.235535e+01    2.318174e+00
  1.246648e+01    2.371778e+00
  1.257761e+01    2.398993e+00
  1.268874e+01    2.487533e+00
  1.279987e+01    2.686504e+00
  1.291100e+01    3.285846e+00
  1.302213e+01    5.845550e+00
  1.313326e+01    1.513200e+01
  1.324438e+01    1.572848e+01
  1.335551e+01    5.278521e+00
  1.346664e+01    3.166606e+00
  1.357777e+01    2.571270e+00
  1.368890e+01    2.314196e+00
  1.380003e+01    2.194074e+00
  1.391116e+01    2.119492e+00
  1.402229e+01    2.058862e+00
  1.413342e+01    2.042168e+00
  1.424455e+01    2.014715e+00
  1.435568e+01    1.964012e+00
  1.446680e+01    1.927859e+00
  1.457793e+01    1.899839e+00
  1.468906e+01    1.936440e+00
  1.480019e+01    1.953631e+00
  1.491132e+01    1.958625e+00
  1.502245e+01    2.235045e+00
  1.513358e+01    3.248593e+00
  1.524471e+01    5.931401e+00
  1.535584e+01    4.788747e+00
  1.546697e+01    2.399382e+00
  1.557809e+01    1.938129e+00
  1.568922e+01    1.794056e+00
  1.580035e+01    1.687966e+00
  1.591148e+01    1.662187e+00
  1.602261e+01    1.619254e+00
  1.613374e+01    1.619265e+00
  1.624487e+01    1.592903e+00
  1.635600e+01    1.552846e+00
  1.646713e+01    1.520872e+00
  1.657826e+01    1.516459e+00
  1.668938e+01    1.489405e+00
  1.680051e+01    1.512835e+00
  1.691164e+01    1.465681e+00
  1.702277e+01    1.431245e+00
  1.713390e+01    1.433635e+00
  1.724503e+01    1.416680e+00
  1.735616e+01    1.411863e+00
  1.746729e+01    1.391046e+00
  1.757842e+01    1.367806e+00
  1.768955e+01    1.356052e+00
  1.780067e+01    1.355476e+00
  1.791180e+01    1.365145e+00
  1.802293e+01    1.283256e+00
  1.813406e+01    1.309858e+00
  1.824519e+01    1.294693e+00
  1.835632e+01    1.266609e+00
  1.846745e+01    1.268105e+00
  1.857858e+01    1.276623e+00
  1.868971e+01    1.252447e+00
  1.880084e+01    1.241026e+00
  1.891196e+01    1.221182e+00
  1.902309e+01    1.210952e+00
  1.913422e+01    1.177290e+00
  1.924535e+01    1.193346e+00
  1.935648e+01    1.203036e+00
  1.946761e+01    1.186478e+00
  1.957874e+01    1.151300e+00
  1.968987e+01    1.166839e+00
  1.980100e+01    1.150353e+00
  1.991213e+01    1.118527e+00
  2.002325e+01    1.115874e+00
  2.013438e+01    1.115575e+00
  2.024551e+01    1.096276e+00
  2.035664e+01    1.098798e+00
  2.046777e+01    1.105512e+00
  2.057890e+01    1.075652e+00
  2.069003e+01    1.095150e+00
  2.080116e+01    1.083643e+00
  2.091229e+01    1.113798e+00
  2.102342e+01    1.089366e+00
  2.113455e+01    1.102452e+00
  2.124567e+01    1.133104e+00
  2.135680e+01    1.163909e+00
  2.146793e+01    1.236019e+00
  2.157906e+01    1.467941e+00
  2.169019e+01    2.116995e+00
  2.180132e+01    4.932907e+00
  2.191245e+01    1.042782e+01
  2.202358e+01    5.716670e+00
  2.213471e+01    2.282893e+00
  2.224584e+01    1.437230e+00
  2.235696e+01    1.201581e+00
  2.246809e+01    1.085995e+00
  2.257922e+01    1.024782e+00
  2.269035e+01    9.733595e-01
  2.280148e+01    9.394197e-01
  2.291261e+01    9.402733e-01
  2.302374e+01    8.978694e-01
  2.313487e+01    8.863276e-01
  2.324600e+01    8.833320e-01
  2.335713e+01    8.967218e-01
  2.346825e+01    8.611964e-01
  2.357938e+01    8.599645e-01
  2.369051e+01    8.279824e-01
  2.380164e+01    8.316559e-01
  2.391277e+01    7.861845e-01
  2.402390e+01    7.902917e-01
  2.413503e+01    7.825849e-01
  2.424616e+01    7.884693e-01
  2.435729e+01    8.065528e-01
  2.446842e+01    7.938744e-01
  2.457954e+01    7.996827e-01
  2.469067e+01    8.076242e-01
  2.480180e+01    8.050466e-01
  2.491293e+01    8.021609e-01
  2.502406e+01    8.212744e-01
  2.513519e+01    8.230952e-01
  2.524632e+01    8.549508e-01
  2.535745e+01    8.940167e-01
  2.546858e+01    9.514844e-01
  2.557971e+01    1.048082e+00
  2.569083e+01    1.350898e+00
  2.580196e+01    2.242831e+00
  2.591309e+01    5.728440e+00
  2.602422e+01    8.588345e+00
  2.613535e+01    3.325646e+00
  2.624648e+01    1.620289e+00
  2.635761e+01    1.149200e+00
  2.646874e+01    1.016946e+00
  2.657987e+01    9.514402e-01
  2.669100e+01    9.453346e-01
  2.680212e+01    9.162149e-01
  2.691325e+01    9.406003e-01
  2.702438e+01    1.029077e+00
  2.713551e+01    1.444795e+00
  2.724664e+01    2.515418e+00
  2.735777e+01    1.700074e+00
  2.746890e+01    1.091023e+00
  2.758003e+01    9.222814e-01
  2.769116e+01    8.565475e-01
  2.780229e+01    8.222275e-01
  2.791342e+01    8.227530e-01
  2.802454e+01    7.962496e-01
  2.813567e+01    8.090555e-01
  2.824680e+01    7.813514e-01
  2.835793e+01    7.952176e-01
  2.846906e+01    7.715099e-01
  2.858019e+01    7.684268e-01
  2.869132e+01    7.559991e-01
  2.880245e+01    7.625669e-01
  2.891358e+01    7.570152e-01
  2.902471e+01    7.460613e-01
  2.913583e+01    7.193800e-01
  2.924696e+01    7.620977e-01
  2.935809e+01    7.470673e-01
  2.946922e+01    7.233832e-01
  2.958035e+01    7.400348e-01
  2.969148e+01    7.403746e-01
  2.980261e+01    7.375333e-01
  2.991374e+01    7.096103e-01
  3.002487e+01    7.494967e-01
  3.013600e+01    7.369084e-01
  3.024712e+01    7.244519e-01
  3.035825e+01    7.173468e-01
  3.046938e+01    7.306358e-01
  3.058051e+01    7.131709e-01
  3.069164e+01    7.010333e-01
  3.080277e+01    7.275548e-01
  3.091390e+01    7.236786e-01
  3.102503e+01    7.179349e-01
  3.113616e+01    7.265209e-01
  3.124729e+01    7.472521e-01
  3.135841e+01    7.170823e-01
  3.146954e+01    7.689117e-01
  3.158067e+01    7.999942e-01
  3.169180e+01    8.852913e-01
  3.180293e+01    1.238196e+00
  3.191406e+01    2.273438e+00
  3.202519e+01    2.029644e+00
  3.213632e+01    1.097296e+00
  3.224745e+01    8.420460e-01
  3.235858e+01    7.673619e-01
  3.246970e+01    7.500851e-01
  3.254908e+01    7.577087e-01