File: XRD/Activation ramp/2024-07-27_002_Ru-CGO-ex_Activtation_ramp_000002_data_000023.dat
# == pyFAI calibration ==
# Distance Sample to Detector: 0.4 m
# PONI: 9.750e-02, 1.135e-01 m
# Rotations: -0.000175 0.000000 -0.000000 rad
#
# == Fit2d calibration ==
# Distance Sample-beamCenter: 400.000 mm
# Center: x=1514.000, y=1300.000 pix
# Tilt: 0.010 deg  TiltPlanRot: 0.010 deg
#
# Detector Detector	 Spline= None	 PixelSize= 7.500e-05, 7.500e-05 m
#    Detector has a mask: False
#    Detector has a dark current: False
#    detector has a flat field: False
#
# Wavelength: 6.888e-11 m
# Mask applied: user provided
# Dark current applied: False
# Flat field applied: False
# Polarization factor: 0.99
# Normalization factor: 1.0
# --> /home/myspot/data/2024_07_Rosario/Ru-CGO-ex/2024-07-27_002_Ru-CGO-ex_Activtation_ramp_000002_data_000023.dat
#       q_nm^-1             I
  2.003187e-02    1.542525e-01
  1.311609e-01    7.487649e-02
  2.422899e-01    7.012007e-03
  3.534189e-01    3.459184e-02
  4.645479e-01    6.713553e-02
  5.756770e-01    3.870570e-02
  6.868060e-01    4.758324e-02
  7.979350e-01    1.728759e-01
  9.090640e-01    5.078548e-01
  1.020193e+00    1.199818e+00
  1.131322e+00    1.500829e+00
  1.242451e+00    2.326597e+00
  1.353580e+00    2.608416e+00
  1.464709e+00    2.888865e+00
  1.575838e+00    3.112266e+00
  1.686967e+00    2.845648e+00
  1.798096e+00    2.908844e+00
  1.909225e+00    2.758842e+00
  2.020354e+00    2.796912e+00
  2.131483e+00    2.886542e+00
  2.242612e+00    2.778529e+00
  2.353741e+00    2.832038e+00
  2.464870e+00    2.824325e+00
  2.575999e+00    2.924101e+00
  2.687128e+00    2.871175e+00
  2.798257e+00    2.856747e+00
  2.909386e+00    2.962845e+00
  3.020515e+00    2.958464e+00
  3.131644e+00    2.832548e+00
  3.242773e+00    2.923049e+00
  3.353902e+00    2.972625e+00
  3.465031e+00    3.031430e+00
  3.576160e+00    2.906584e+00
  3.687289e+00    2.928836e+00
  3.798418e+00    3.016362e+00
  3.909547e+00    3.033496e+00
  4.020676e+00    3.046421e+00
  4.131806e+00    3.079584e+00
  4.242935e+00    3.037004e+00
  4.354064e+00    3.140043e+00
  4.465193e+00    3.088621e+00
  4.576322e+00    3.080408e+00
  4.687451e+00    3.098895e+00
  4.798580e+00    3.189370e+00
  4.909709e+00    3.182726e+00
  5.020838e+00    3.145563e+00
  5.131967e+00    3.108487e+00
  5.243096e+00    3.174862e+00
  5.354225e+00    3.102691e+00
  5.465354e+00    3.122503e+00
  5.576483e+00    3.113107e+00
  5.687612e+00    3.093192e+00
  5.798741e+00    3.120466e+00
  5.909870e+00    3.021627e+00
  6.020999e+00    3.024660e+00
  6.132128e+00    3.153017e+00
  6.243257e+00    3.128768e+00
  6.354386e+00    2.959828e+00
  6.465515e+00    3.040599e+00
  6.576644e+00    3.082206e+00
  6.687773e+00    3.028561e+00
  6.798902e+00    3.041407e+00
  6.910031e+00    3.066525e+00
  7.021160e+00    3.048075e+00
  7.132289e+00    2.993006e+00
  7.243418e+00    2.980569e+00
  7.354547e+00    3.091156e+00
  7.465676e+00    3.022092e+00
  7.576805e+00    2.967190e+00
  7.687934e+00    2.952438e+00
  7.799063e+00    2.930147e+00
  7.910192e+00    2.962550e+00
  8.021321e+00    2.924275e+00
  8.132450e+00    2.954815e+00
  8.243579e+00    2.973069e+00
  8.354708e+00    2.893753e+00
  8.465837e+00    2.937003e+00
  8.576966e+00    2.900138e+00
  8.688095e+00    2.911582e+00
  8.799224e+00    2.824622e+00
  8.910353e+00    2.914747e+00
  9.021482e+00    2.869709e+00
  9.132611e+00    2.859687e+00
  9.243740e+00    2.776963e+00
  9.354869e+00    2.782242e+00
  9.465998e+00    2.833495e+00
  9.577127e+00    2.734777e+00
  9.688256e+00    2.730714e+00
  9.799385e+00    2.728983e+00
  9.910514e+00    2.716282e+00
  1.002164e+01    2.690185e+00
  1.013277e+01    2.651076e+00
  1.024390e+01    2.678396e+00
  1.035503e+01    2.655575e+00
  1.046616e+01    2.603016e+00
  1.057729e+01    2.617116e+00
  1.068842e+01    2.562540e+00
  1.079955e+01    2.565741e+00
  1.091068e+01    2.504458e+00
  1.102180e+01    2.514174e+00
  1.113293e+01    2.471999e+00
  1.124406e+01    2.439882e+00
  1.135519e+01    2.463188e+00
  1.146632e+01    2.436995e+00
  1.157745e+01    2.408736e+00
  1.168858e+01    2.363155e+00
  1.179971e+01    2.403945e+00
  1.191084e+01    2.380647e+00
  1.202197e+01    2.326559e+00
  1.213309e+01    2.342209e+00
  1.224422e+01    2.369765e+00
  1.235535e+01    2.352093e+00
  1.246648e+01    2.360962e+00
  1.257761e+01    2.413398e+00
  1.268874e+01    2.527429e+00
  1.279987e+01    2.682128e+00
  1.291100e+01    3.302327e+00
  1.302213e+01    5.883276e+00
  1.313326e+01    1.499195e+01
  1.324438e+01    1.616895e+01
  1.335551e+01    5.397716e+00
  1.346664e+01    3.149839e+00
  1.357777e+01    2.586885e+00
  1.368890e+01    2.319030e+00
  1.380003e+01    2.247607e+00
  1.391116e+01    2.121356e+00
  1.402229e+01    2.109900e+00
  1.413342e+01    2.077995e+00
  1.424455e+01    2.017578e+00
  1.435568e+01    1.978261e+00
  1.446680e+01    1.952998e+00
  1.457793e+01    1.891332e+00
  1.468906e+01    1.908159e+00
  1.480019e+01    1.883033e+00
  1.491132e+01    1.939105e+00
  1.502245e+01    2.192176e+00
  1.513358e+01    3.216411e+00
  1.524471e+01    5.955463e+00
  1.535584e+01    4.911590e+00
  1.546697e+01    2.458881e+00
  1.557809e+01    1.968703e+00
  1.568922e+01    1.774494e+00
  1.580035e+01    1.704858e+00
  1.591148e+01    1.644845e+00
  1.602261e+01    1.671638e+00
  1.613374e+01    1.598555e+00
  1.624487e+01    1.597468e+00
  1.635600e+01    1.575713e+00
  1.646713e+01    1.534639e+00
  1.657826e+01    1.527274e+00
  1.668938e+01    1.539483e+00
  1.680051e+01    1.502917e+00
  1.691164e+01    1.465913e+00
  1.702277e+01    1.466414e+00
  1.713390e+01    1.426668e+00
  1.724503e+01    1.397827e+00
  1.735616e+01    1.404568e+00
  1.746729e+01    1.392210e+00
  1.757842e+01    1.356097e+00
  1.768955e+01    1.378134e+00
  1.780067e+01    1.343111e+00
  1.791180e+01    1.361370e+00
  1.802293e+01    1.333371e+00
  1.813406e+01    1.304432e+00
  1.824519e+01    1.300734e+00
  1.835632e+01    1.269910e+00
  1.846745e+01    1.281291e+00
  1.857858e+01    1.255058e+00
  1.868971e+01    1.249827e+00
  1.880084e+01    1.243886e+00
  1.891196e+01    1.239323e+00
  1.902309e+01    1.206930e+00
  1.913422e+01    1.179316e+00
  1.924535e+01    1.220412e+00
  1.935648e+01    1.182449e+00
  1.946761e+01    1.206132e+00
  1.957874e+01    1.173434e+00
  1.968987e+01    1.177894e+00
  1.980100e+01    1.134946e+00
  1.991213e+01    1.125593e+00
  2.002325e+01    1.123011e+00
  2.013438e+01    1.126800e+00
  2.024551e+01    1.126375e+00
  2.035664e+01    1.098813e+00
  2.046777e+01    1.122284e+00
  2.057890e+01    1.097860e+00
  2.069003e+01    1.097118e+00
  2.080116e+01    1.092807e+00
  2.091229e+01    1.096974e+00
  2.102342e+01    1.109142e+00
  2.113455e+01    1.098860e+00
  2.124567e+01    1.141929e+00
  2.135680e+01    1.164363e+00
  2.146793e+01    1.245506e+00
  2.157906e+01    1.465331e+00
  2.169019e+01    2.114696e+00
  2.180132e+01    4.828888e+00
  2.191245e+01    1.055360e+01
  2.202358e+01    6.058921e+00
  2.213471e+01    2.340019e+00
  2.224584e+01    1.489817e+00
  2.235696e+01    1.200369e+00
  2.246809e+01    1.088516e+00
  2.257922e+01    1.014148e+00
  2.269035e+01    9.632645e-01
  2.280148e+01    9.533124e-01
  2.291261e+01    9.436940e-01
  2.302374e+01    9.117711e-01
  2.313487e+01    9.054934e-01
  2.324600e+01    8.903251e-01
  2.335713e+01    8.848748e-01
  2.346825e+01    8.870094e-01
  2.357938e+01    8.624325e-01
  2.369051e+01    8.557210e-01
  2.380164e+01    8.006512e-01
  2.391277e+01    8.314482e-01
  2.402390e+01    7.986544e-01
  2.413503e+01    8.054529e-01
  2.424616e+01    7.993891e-01
  2.435729e+01    8.017552e-01
  2.446842e+01    7.939521e-01
  2.457954e+01    8.158962e-01
  2.469067e+01    8.140413e-01
  2.480180e+01    7.935426e-01
  2.491293e+01    8.012857e-01
  2.502406e+01    8.356656e-01
  2.513519e+01    8.324444e-01
  2.524632e+01    8.710040e-01
  2.535745e+01    8.825368e-01
  2.546858e+01    9.556807e-01
  2.557971e+01    1.083953e+00
  2.569083e+01    1.338058e+00
  2.580196e+01    2.195505e+00
  2.591309e+01    5.606813e+00
  2.602422e+01    8.890980e+00
  2.613535e+01    3.571138e+00
  2.624648e+01    1.717467e+00
  2.635761e+01    1.172381e+00
  2.646874e+01    1.038336e+00
  2.657987e+01    9.747576e-01
  2.669100e+01    9.371247e-01
  2.680212e+01    9.295952e-01
  2.691325e+01    9.358362e-01
  2.702438e+01    1.029128e+00
  2.713551e+01    1.460172e+00
  2.724664e+01    2.567289e+00
  2.735777e+01    1.771437e+00
  2.746890e+01    1.118488e+00
  2.758003e+01    9.346869e-01
  2.769116e+01    8.596303e-01
  2.780229e+01    8.509468e-01
  2.791342e+01    8.152160e-01
  2.802454e+01    8.126903e-01
  2.813567e+01    7.891392e-01
  2.824680e+01    8.147604e-01
  2.835793e+01    8.067147e-01
  2.846906e+01    7.945694e-01
  2.858019e+01    7.979508e-01
  2.869132e+01    7.676807e-01
  2.880245e+01    7.558581e-01
  2.891358e+01    7.536743e-01
  2.902471e+01    7.406663e-01
  2.913583e+01    7.630916e-01
  2.924696e+01    7.393143e-01
  2.935809e+01    7.433661e-01
  2.946922e+01    7.334349e-01
  2.958035e+01    7.294802e-01
  2.969148e+01    7.270156e-01
  2.980261e+01    7.350547e-01
  2.991374e+01    7.350826e-01
  3.002487e+01    7.374292e-01
  3.013600e+01    7.337744e-01
  3.024712e+01    7.327925e-01
  3.035825e+01    7.297650e-01
  3.046938e+01    7.383875e-01
  3.058051e+01    7.223246e-01
  3.069164e+01    7.383624e-01
  3.080277e+01    7.554643e-01
  3.091390e+01    7.235073e-01
  3.102503e+01    7.336135e-01
  3.113616e+01    7.257640e-01
  3.124729e+01    7.402229e-01
  3.135841e+01    7.412214e-01
  3.146954e+01    7.582777e-01
  3.158067e+01    8.056110e-01
  3.169180e+01    9.125211e-01
  3.180293e+01    1.202054e+00
  3.191406e+01    2.236876e+00
  3.202519e+01    2.129819e+00
  3.213632e+01    1.118399e+00
  3.224745e+01    8.634275e-01
  3.235858e+01    7.683882e-01
  3.246970e+01    7.595485e-01
  3.254908e+01    7.469566e-01