File: XRD/Activation ramp/2024-07-27_002_Ru-CGO-ex_Activtation_ramp_000002_data_000115.dat
# == pyFAI calibration ==
# Distance Sample to Detector: 0.4 m
# PONI: 9.750e-02, 1.135e-01 m
# Rotations: -0.000175 0.000000 -0.000000 rad
#
# == Fit2d calibration ==
# Distance Sample-beamCenter: 400.000 mm
# Center: x=1514.000, y=1300.000 pix
# Tilt: 0.010 deg  TiltPlanRot: 0.010 deg
#
# Detector Detector	 Spline= None	 PixelSize= 7.500e-05, 7.500e-05 m
#    Detector has a mask: False
#    Detector has a dark current: False
#    detector has a flat field: False
#
# Wavelength: 6.888e-11 m
# Mask applied: user provided
# Dark current applied: False
# Flat field applied: False
# Polarization factor: 0.99
# Normalization factor: 1.0
# --> /home/myspot/data/2024_07_Rosario/Ru-CGO-ex/2024-07-27_002_Ru-CGO-ex_Activtation_ramp_000002_data_000115.dat
#       q_nm^-1             I
  2.003187e-02    9.939597e-02
  1.311609e-01    9.019940e-02
  2.422899e-01    5.549468e-02
  3.534189e-01    5.398552e-02
  4.645479e-01    4.387606e-02
  5.756770e-01    3.043930e-02
  6.868060e-01    3.794387e-02
  7.979350e-01    1.487323e-01
  9.090640e-01    5.467679e-01
  1.020193e+00    1.126848e+00
  1.131322e+00    1.382733e+00
  1.242451e+00    2.122425e+00
  1.353580e+00    2.475508e+00
  1.464709e+00    2.650412e+00
  1.575838e+00    2.852450e+00
  1.686967e+00    2.749426e+00
  1.798096e+00    2.777990e+00
  1.909225e+00    2.587823e+00
  2.020354e+00    2.619754e+00
  2.131483e+00    2.717398e+00
  2.242612e+00    2.657434e+00
  2.353741e+00    2.725313e+00
  2.464870e+00    2.775330e+00
  2.575999e+00    2.717482e+00
  2.687128e+00    2.847914e+00
  2.798257e+00    2.722142e+00
  2.909386e+00    2.748942e+00
  3.020515e+00    2.868203e+00
  3.131644e+00    2.877418e+00
  3.242773e+00    2.886949e+00
  3.353902e+00    2.835284e+00
  3.465031e+00    2.855215e+00
  3.576160e+00    2.856597e+00
  3.687289e+00    2.824422e+00
  3.798418e+00    2.948014e+00
  3.909547e+00    2.974484e+00
  4.020676e+00    3.012388e+00
  4.131806e+00    2.905722e+00
  4.242935e+00    3.010189e+00
  4.354064e+00    2.962751e+00
  4.465193e+00    3.051055e+00
  4.576322e+00    3.091527e+00
  4.687451e+00    3.098625e+00
  4.798580e+00    3.074436e+00
  4.909709e+00    3.032252e+00
  5.020838e+00    3.042476e+00
  5.131967e+00    3.172172e+00
  5.243096e+00    3.012711e+00
  5.354225e+00    3.043383e+00
  5.465354e+00    3.035707e+00
  5.576483e+00    3.039606e+00
  5.687612e+00    3.042479e+00
  5.798741e+00    3.053925e+00
  5.909870e+00    2.903789e+00
  6.020999e+00    2.953000e+00
  6.132128e+00    3.045545e+00
  6.243257e+00    2.985363e+00
  6.354386e+00    3.039074e+00
  6.465515e+00    3.065821e+00
  6.576644e+00    3.046868e+00
  6.687773e+00    2.982079e+00
  6.798902e+00    2.970405e+00
  6.910031e+00    2.896945e+00
  7.021160e+00    2.937093e+00
  7.132289e+00    2.915319e+00
  7.243418e+00    2.992361e+00
  7.354547e+00    2.942822e+00
  7.465676e+00    2.908526e+00
  7.576805e+00    2.864195e+00
  7.687934e+00    2.863035e+00
  7.799063e+00    2.868253e+00
  7.910192e+00    2.843252e+00
  8.021321e+00    2.868431e+00
  8.132450e+00    2.880888e+00
  8.243579e+00    2.927032e+00
  8.354708e+00    2.887527e+00
  8.465837e+00    2.849105e+00
  8.576966e+00    2.887722e+00
  8.688095e+00    2.816670e+00
  8.799224e+00    2.814545e+00
  8.910353e+00    2.838311e+00
  9.021482e+00    2.746727e+00
  9.132611e+00    2.793939e+00
  9.243740e+00    2.727587e+00
  9.354869e+00    2.701866e+00
  9.465998e+00    2.748600e+00
  9.577127e+00    2.678459e+00
  9.688256e+00    2.650820e+00
  9.799385e+00    2.626042e+00
  9.910514e+00    2.668135e+00
  1.002164e+01    2.646269e+00
  1.013277e+01    2.567501e+00
  1.024390e+01    2.590526e+00
  1.035503e+01    2.612730e+00
  1.046616e+01    2.533742e+00
  1.057729e+01    2.492465e+00
  1.068842e+01    2.533270e+00
  1.079955e+01    2.479158e+00
  1.091068e+01    2.478440e+00
  1.102180e+01    2.457734e+00
  1.113293e+01    2.437336e+00
  1.124406e+01    2.404934e+00
  1.135519e+01    2.450659e+00
  1.146632e+01    2.385821e+00
  1.157745e+01    2.318824e+00
  1.168858e+01    2.308681e+00
  1.179971e+01    2.288472e+00
  1.191084e+01    2.327822e+00
  1.202197e+01    2.291695e+00
  1.213309e+01    2.231279e+00
  1.224422e+01    2.298448e+00
  1.235535e+01    2.303122e+00
  1.246648e+01    2.345308e+00
  1.257761e+01    2.328212e+00
  1.268874e+01    2.412502e+00
  1.279987e+01    2.584608e+00
  1.291100e+01    3.248939e+00
  1.302213e+01    6.140618e+00
  1.313326e+01    1.469776e+01
  1.324438e+01    1.223572e+01
  1.335551e+01    4.415579e+00
  1.346664e+01    2.842055e+00
  1.357777e+01    2.454134e+00
  1.368890e+01    2.203694e+00
  1.380003e+01    2.123625e+00
  1.391116e+01    2.034509e+00
  1.402229e+01    1.991213e+00
  1.413342e+01    2.014424e+00
  1.424455e+01    1.941302e+00
  1.435568e+01    1.917393e+00
  1.446680e+01    1.914181e+00
  1.457793e+01    1.881547e+00
  1.468906e+01    1.871545e+00
  1.480019e+01    1.899486e+00
  1.491132e+01    1.923289e+00
  1.502245e+01    2.182632e+00
  1.513358e+01    3.398122e+00
  1.524471e+01    5.719383e+00
  1.535584e+01    3.871079e+00
  1.546697e+01    2.208466e+00
  1.557809e+01    1.846948e+00
  1.568922e+01    1.727596e+00
  1.580035e+01    1.616807e+00
  1.591148e+01    1.603506e+00
  1.602261e+01    1.557520e+00
  1.613374e+01    1.566963e+00
  1.624487e+01    1.578511e+00
  1.635600e+01    1.524545e+00
  1.646713e+01    1.500350e+00
  1.657826e+01    1.473697e+00
  1.668938e+01    1.461095e+00
  1.680051e+01    1.450863e+00
  1.691164e+01    1.414793e+00
  1.702277e+01    1.414244e+00
  1.713390e+01    1.412908e+00
  1.724503e+01    1.385257e+00
  1.735616e+01    1.373269e+00
  1.746729e+01    1.356576e+00
  1.757842e+01    1.326232e+00
  1.768955e+01    1.315670e+00
  1.780067e+01    1.309808e+00
  1.791180e+01    1.276528e+00
  1.802293e+01    1.268461e+00
  1.813406e+01    1.263014e+00
  1.824519e+01    1.280893e+00
  1.835632e+01    1.237129e+00
  1.846745e+01    1.202897e+00
  1.857858e+01    1.216942e+00
  1.868971e+01    1.197102e+00
  1.880084e+01    1.188053e+00
  1.891196e+01    1.182370e+00
  1.902309e+01    1.185991e+00
  1.913422e+01    1.152227e+00
  1.924535e+01    1.141016e+00
  1.935648e+01    1.181942e+00
  1.946761e+01    1.163661e+00
  1.957874e+01    1.119043e+00
  1.968987e+01    1.150414e+00
  1.980100e+01    1.116038e+00
  1.991213e+01    1.121826e+00
  2.002325e+01    1.109761e+00
  2.013438e+01    1.079840e+00
  2.024551e+01    1.090369e+00
  2.035664e+01    1.108508e+00
  2.046777e+01    1.064664e+00
  2.057890e+01    1.070349e+00
  2.069003e+01    1.056811e+00
  2.080116e+01    1.069167e+00
  2.091229e+01    1.070197e+00
  2.102342e+01    1.063400e+00
  2.113455e+01    1.060357e+00
  2.124567e+01    1.101673e+00
  2.135680e+01    1.142225e+00
  2.146793e+01    1.239579e+00
  2.157906e+01    1.427011e+00
  2.169019e+01    2.244154e+00
  2.180132e+01    5.465122e+00
  2.191245e+01    9.543312e+00
  2.202358e+01    4.043424e+00
  2.213471e+01    1.849030e+00
  2.224584e+01    1.298516e+00
  2.235696e+01    1.117371e+00
  2.246809e+01    1.057872e+00
  2.257922e+01    9.661707e-01
  2.269035e+01    9.374391e-01
  2.280148e+01    9.385172e-01
  2.291261e+01    9.083270e-01
  2.302374e+01    9.107167e-01
  2.313487e+01    8.747364e-01
  2.324600e+01    8.606693e-01
  2.335713e+01    8.505985e-01
  2.346825e+01    8.426666e-01
  2.357938e+01    8.406982e-01
  2.369051e+01    8.104286e-01
  2.380164e+01    8.037059e-01
  2.391277e+01    7.945951e-01
  2.402390e+01    7.885738e-01
  2.413503e+01    7.786576e-01
  2.424616e+01    7.550285e-01
  2.435729e+01    7.864813e-01
  2.446842e+01    7.887219e-01
  2.457954e+01    7.741253e-01
  2.469067e+01    7.763222e-01
  2.480180e+01    7.720889e-01
  2.491293e+01    7.751830e-01
  2.502406e+01    7.975150e-01
  2.513519e+01    7.893866e-01
  2.524632e+01    8.346854e-01
  2.535745e+01    8.730691e-01
  2.546858e+01    9.486697e-01
  2.557971e+01    1.056514e+00
  2.569083e+01    1.371348e+00
  2.580196e+01    2.534083e+00
  2.591309e+01    6.231972e+00
  2.602422e+01    6.438996e+00
  2.613535e+01    2.384131e+00
  2.624648e+01    1.363391e+00
  2.635761e+01    1.067523e+00
  2.646874e+01    9.542153e-01
  2.657987e+01    8.838328e-01
  2.669100e+01    8.975716e-01
  2.680212e+01    8.922252e-01
  2.691325e+01    9.099637e-01
  2.702438e+01    1.042136e+00
  2.713551e+01    1.585196e+00
  2.724664e+01    2.291921e+00
  2.735777e+01    1.286158e+00
  2.746890e+01    9.584006e-01
  2.758003e+01    8.470302e-01
  2.769116e+01    8.409130e-01
  2.780229e+01    8.099048e-01
  2.791342e+01    7.837605e-01
  2.802454e+01    7.812591e-01
  2.813567e+01    7.851941e-01
  2.824680e+01    7.628468e-01
  2.835793e+01    7.486635e-01
  2.846906e+01    7.626914e-01
  2.858019e+01    7.440217e-01
  2.869132e+01    7.448441e-01
  2.880245e+01    7.289101e-01
  2.891358e+01    7.341938e-01
  2.902471e+01    7.188691e-01
  2.913583e+01    7.438089e-01
  2.924696e+01    7.368925e-01
  2.935809e+01    7.520682e-01
  2.946922e+01    7.269047e-01
  2.958035e+01    7.059401e-01
  2.969148e+01    6.949168e-01
  2.980261e+01    7.040830e-01
  2.991374e+01    7.054155e-01
  3.002487e+01    7.217805e-01
  3.013600e+01    7.239514e-01
  3.024712e+01    7.066673e-01
  3.035825e+01    7.074983e-01
  3.046938e+01    7.117728e-01
  3.058051e+01    7.077189e-01
  3.069164e+01    7.162607e-01
  3.080277e+01    6.937845e-01
  3.091390e+01    6.921279e-01
  3.102503e+01    7.237778e-01
  3.113616e+01    7.241490e-01
  3.124729e+01    7.300242e-01
  3.135841e+01    7.154242e-01
  3.146954e+01    7.514686e-01
  3.158067e+01    7.711229e-01
  3.169180e+01    9.472779e-01
  3.180293e+01    1.355934e+00
  3.191406e+01    2.290314e+00
  3.202519e+01    1.446062e+00
  3.213632e+01    9.343141e-01
  3.224745e+01    7.624706e-01
  3.235858e+01    7.324261e-01
  3.246970e+01    7.215940e-01
  3.254908e+01    6.958395e-01