File: XRD/Activation ramp/2024-07-27_002_Ru-CGO-ex_Activtation_ramp_000002_data_000107.dat
# == pyFAI calibration ==
# Distance Sample to Detector: 0.4 m
# PONI: 9.750e-02, 1.135e-01 m
# Rotations: -0.000175 0.000000 -0.000000 rad
#
# == Fit2d calibration ==
# Distance Sample-beamCenter: 400.000 mm
# Center: x=1514.000, y=1300.000 pix
# Tilt: 0.010 deg  TiltPlanRot: 0.010 deg
#
# Detector Detector	 Spline= None	 PixelSize= 7.500e-05, 7.500e-05 m
#    Detector has a mask: False
#    Detector has a dark current: False
#    detector has a flat field: False
#
# Wavelength: 6.888e-11 m
# Mask applied: user provided
# Dark current applied: False
# Flat field applied: False
# Polarization factor: 0.99
# Normalization factor: 1.0
# --> /home/myspot/data/2024_07_Rosario/Ru-CGO-ex/2024-07-27_002_Ru-CGO-ex_Activtation_ramp_000002_data_000107.dat
#       q_nm^-1             I
  2.003187e-02    0.000000e+00
  1.311609e-01    2.671745e-03
  2.422899e-01    5.149697e-02
  3.534189e-01    4.214508e-02
  4.645479e-01    7.635222e-02
  5.756770e-01    2.663266e-02
  6.868060e-01    1.024121e-02
  7.979350e-01    1.251388e-01
  9.090640e-01    5.485530e-01
  1.020193e+00    1.161936e+00
  1.131322e+00    1.434329e+00
  1.242451e+00    2.200118e+00
  1.353580e+00    2.467354e+00
  1.464709e+00    2.750854e+00
  1.575838e+00    2.870912e+00
  1.686967e+00    2.704962e+00
  1.798096e+00    2.692795e+00
  1.909225e+00    2.683794e+00
  2.020354e+00    2.713687e+00
  2.131483e+00    2.746231e+00
  2.242612e+00    2.728392e+00
  2.353741e+00    2.642859e+00
  2.464870e+00    2.836550e+00
  2.575999e+00    2.833255e+00
  2.687128e+00    2.784662e+00
  2.798257e+00    2.837651e+00
  2.909386e+00    2.767214e+00
  3.020515e+00    2.801273e+00
  3.131644e+00    2.824392e+00
  3.242773e+00    2.819040e+00
  3.353902e+00    2.846461e+00
  3.465031e+00    2.822381e+00
  3.576160e+00    2.931355e+00
  3.687289e+00    2.850279e+00
  3.798418e+00    2.960356e+00
  3.909547e+00    2.982314e+00
  4.020676e+00    3.041218e+00
  4.131806e+00    2.909295e+00
  4.242935e+00    2.995847e+00
  4.354064e+00    2.971290e+00
  4.465193e+00    2.983664e+00
  4.576322e+00    3.002087e+00
  4.687451e+00    3.086239e+00
  4.798580e+00    3.000984e+00
  4.909709e+00    3.054900e+00
  5.020838e+00    3.060748e+00
  5.131967e+00    3.122657e+00
  5.243096e+00    3.009438e+00
  5.354225e+00    3.091663e+00
  5.465354e+00    2.978787e+00
  5.576483e+00    3.072518e+00
  5.687612e+00    3.071434e+00
  5.798741e+00    2.876578e+00
  5.909870e+00    3.075452e+00
  6.020999e+00    3.031985e+00
  6.132128e+00    2.987380e+00
  6.243257e+00    2.994232e+00
  6.354386e+00    3.052243e+00
  6.465515e+00    3.010326e+00
  6.576644e+00    2.995562e+00
  6.687773e+00    2.938579e+00
  6.798902e+00    2.995247e+00
  6.910031e+00    3.026657e+00
  7.021160e+00    2.965226e+00
  7.132289e+00    2.928852e+00
  7.243418e+00    3.004035e+00
  7.354547e+00    2.945810e+00
  7.465676e+00    2.952425e+00
  7.576805e+00    2.910797e+00
  7.687934e+00    2.910457e+00
  7.799063e+00    2.885330e+00
  7.910192e+00    2.843731e+00
  8.021321e+00    2.810833e+00
  8.132450e+00    2.873928e+00
  8.243579e+00    2.921001e+00
  8.354708e+00    2.904826e+00
  8.465837e+00    2.838340e+00
  8.576966e+00    2.802396e+00
  8.688095e+00    2.766501e+00
  8.799224e+00    2.856035e+00
  8.910353e+00    2.864781e+00
  9.021482e+00    2.837413e+00
  9.132611e+00    2.785830e+00
  9.243740e+00    2.785897e+00
  9.354869e+00    2.725974e+00
  9.465998e+00    2.697839e+00
  9.577127e+00    2.720672e+00
  9.688256e+00    2.654914e+00
  9.799385e+00    2.708156e+00
  9.910514e+00    2.578558e+00
  1.002164e+01    2.660501e+00
  1.013277e+01    2.591553e+00
  1.024390e+01    2.579506e+00
  1.035503e+01    2.569221e+00
  1.046616e+01    2.591215e+00
  1.057729e+01    2.530958e+00
  1.068842e+01    2.491354e+00
  1.079955e+01    2.511924e+00
  1.091068e+01    2.403264e+00
  1.102180e+01    2.476907e+00
  1.113293e+01    2.424505e+00
  1.124406e+01    2.409972e+00
  1.135519e+01    2.424179e+00
  1.146632e+01    2.338308e+00
  1.157745e+01    2.297723e+00
  1.168858e+01    2.347301e+00
  1.179971e+01    2.318914e+00
  1.191084e+01    2.292307e+00
  1.202197e+01    2.312058e+00
  1.213309e+01    2.315806e+00
  1.224422e+01    2.247149e+00
  1.235535e+01    2.337151e+00
  1.246648e+01    2.297544e+00
  1.257761e+01    2.374781e+00
  1.268874e+01    2.417422e+00
  1.279987e+01    2.620099e+00
  1.291100e+01    3.258512e+00
  1.302213e+01    6.092805e+00
  1.313326e+01    1.463104e+01
  1.324438e+01    1.260711e+01
  1.335551e+01    4.477669e+00
  1.346664e+01    2.885362e+00
  1.357777e+01    2.398645e+00
  1.368890e+01    2.247500e+00
  1.380003e+01    2.144776e+00
  1.391116e+01    2.076372e+00
  1.402229e+01    2.044885e+00
  1.413342e+01    2.005354e+00
  1.424455e+01    1.943759e+00
  1.435568e+01    1.938262e+00
  1.446680e+01    1.966381e+00
  1.457793e+01    1.894683e+00
  1.468906e+01    1.876211e+00
  1.480019e+01    1.864296e+00
  1.491132e+01    1.985492e+00
  1.502245e+01    2.197461e+00
  1.513358e+01    3.330501e+00
  1.524471e+01    5.755993e+00
  1.535584e+01    3.973451e+00
  1.546697e+01    2.220394e+00
  1.557809e+01    1.871810e+00
  1.568922e+01    1.704216e+00
  1.580035e+01    1.680376e+00
  1.591148e+01    1.612402e+00
  1.602261e+01    1.565107e+00
  1.613374e+01    1.566237e+00
  1.624487e+01    1.559029e+00
  1.635600e+01    1.517437e+00
  1.646713e+01    1.511965e+00
  1.657826e+01    1.484265e+00
  1.668938e+01    1.473642e+00
  1.680051e+01    1.448492e+00
  1.691164e+01    1.390085e+00
  1.702277e+01    1.402321e+00
  1.713390e+01    1.395063e+00
  1.724503e+01    1.367907e+00
  1.735616e+01    1.380071e+00
  1.746729e+01    1.320785e+00
  1.757842e+01    1.336238e+00
  1.768955e+01    1.321109e+00
  1.780067e+01    1.327467e+00
  1.791180e+01    1.321060e+00
  1.802293e+01    1.297385e+00
  1.813406e+01    1.270885e+00
  1.824519e+01    1.268610e+00
  1.835632e+01    1.251295e+00
  1.846745e+01    1.248519e+00
  1.857858e+01    1.252782e+00
  1.868971e+01    1.199962e+00
  1.880084e+01    1.194901e+00
  1.891196e+01    1.185513e+00
  1.902309e+01    1.182399e+00
  1.913422e+01    1.147856e+00
  1.924535e+01    1.184090e+00
  1.935648e+01    1.164986e+00
  1.946761e+01    1.148158e+00
  1.957874e+01    1.128505e+00
  1.968987e+01    1.131512e+00
  1.980100e+01    1.121891e+00
  1.991213e+01    1.092262e+00
  2.002325e+01    1.090174e+00
  2.013438e+01    1.079861e+00
  2.024551e+01    1.090279e+00
  2.035664e+01    1.098989e+00
  2.046777e+01    1.064501e+00
  2.057890e+01    1.067946e+00
  2.069003e+01    1.089378e+00
  2.080116e+01    1.064911e+00
  2.091229e+01    1.078632e+00
  2.102342e+01    1.078308e+00
  2.113455e+01    1.058738e+00
  2.124567e+01    1.102427e+00
  2.135680e+01    1.117989e+00
  2.146793e+01    1.211736e+00
  2.157906e+01    1.432045e+00
  2.169019e+01    2.277285e+00
  2.180132e+01    5.359276e+00
  2.191245e+01    9.731360e+00
  2.202358e+01    4.156251e+00
  2.213471e+01    1.913963e+00
  2.224584e+01    1.352826e+00
  2.235696e+01    1.137431e+00
  2.246809e+01    1.029292e+00
  2.257922e+01    9.484158e-01
  2.269035e+01    9.741334e-01
  2.280148e+01    9.193969e-01
  2.291261e+01    9.077990e-01
  2.302374e+01    8.898239e-01
  2.313487e+01    8.689910e-01
  2.324600e+01    8.699502e-01
  2.335713e+01    8.574403e-01
  2.346825e+01    8.487273e-01
  2.357938e+01    8.507220e-01
  2.369051e+01    8.182164e-01
  2.380164e+01    7.901653e-01
  2.391277e+01    7.796866e-01
  2.402390e+01    7.875819e-01
  2.413503e+01    7.571566e-01
  2.424616e+01    7.937046e-01
  2.435729e+01    7.793791e-01
  2.446842e+01    7.781335e-01
  2.457954e+01    7.928059e-01
  2.469067e+01    7.833008e-01
  2.480180e+01    7.962863e-01
  2.491293e+01    7.869255e-01
  2.502406e+01    8.009353e-01
  2.513519e+01    8.148558e-01
  2.524632e+01    8.643304e-01
  2.535745e+01    8.690317e-01
  2.546858e+01    9.282660e-01
  2.557971e+01    1.038020e+00
  2.569083e+01    1.345116e+00
  2.580196e+01    2.499233e+00
  2.591309e+01    6.189327e+00
  2.602422e+01    6.674798e+00
  2.613535e+01    2.465099e+00
  2.624648e+01    1.364683e+00
  2.635761e+01    1.056455e+00
  2.646874e+01    9.621738e-01
  2.657987e+01    9.120041e-01
  2.669100e+01    9.139977e-01
  2.680212e+01    8.782936e-01
  2.691325e+01    9.097003e-01
  2.702438e+01    1.058656e+00
  2.713551e+01    1.591963e+00
  2.724664e+01    2.324075e+00
  2.735777e+01    1.362267e+00
  2.746890e+01    9.633600e-01
  2.758003e+01    8.723644e-01
  2.769116e+01    7.907280e-01
  2.780229e+01    8.062556e-01
  2.791342e+01    7.829472e-01
  2.802454e+01    7.792942e-01
  2.813567e+01    7.667372e-01
  2.824680e+01    7.642238e-01
  2.835793e+01    7.449228e-01
  2.846906e+01    7.429428e-01
  2.858019e+01    7.545345e-01
  2.869132e+01    7.715469e-01
  2.880245e+01    7.327523e-01
  2.891358e+01    7.427244e-01
  2.902471e+01    7.618006e-01
  2.913583e+01    7.390776e-01
  2.924696e+01    7.142105e-01
  2.935809e+01    6.973885e-01
  2.946922e+01    7.289463e-01
  2.958035e+01    7.173381e-01
  2.969148e+01    7.090652e-01
  2.980261e+01    7.219030e-01
  2.991374e+01    7.083821e-01
  3.002487e+01    7.237967e-01
  3.013600e+01    7.188810e-01
  3.024712e+01    7.016970e-01
  3.035825e+01    6.964155e-01
  3.046938e+01    6.873869e-01
  3.058051e+01    6.985613e-01
  3.069164e+01    7.002289e-01
  3.080277e+01    6.997746e-01
  3.091390e+01    7.151488e-01
  3.102503e+01    7.199286e-01
  3.113616e+01    7.184657e-01
  3.124729e+01    7.175621e-01
  3.135841e+01    7.295753e-01
  3.146954e+01    7.452385e-01
  3.158067e+01    7.947399e-01
  3.169180e+01    9.104176e-01
  3.180293e+01    1.345339e+00
  3.191406e+01    2.271601e+00
  3.202519e+01    1.513052e+00
  3.213632e+01    9.535215e-01
  3.224745e+01    7.848817e-01
  3.235858e+01    7.628916e-01
  3.246970e+01    7.142789e-01
  3.254908e+01    7.193329e-01