File: XRD/Activation ramp/2024-07-27_002_Ru-CGO-ex_Activtation_ramp_000002_data_000142.dat
# == pyFAI calibration ==
# Distance Sample to Detector: 0.4 m
# PONI: 9.750e-02, 1.135e-01 m
# Rotations: -0.000175 0.000000 -0.000000 rad
#
# == Fit2d calibration ==
# Distance Sample-beamCenter: 400.000 mm
# Center: x=1514.000, y=1300.000 pix
# Tilt: 0.010 deg  TiltPlanRot: 0.010 deg
#
# Detector Detector	 Spline= None	 PixelSize= 7.500e-05, 7.500e-05 m
#    Detector has a mask: False
#    Detector has a dark current: False
#    detector has a flat field: False
#
# Wavelength: 6.888e-11 m
# Mask applied: user provided
# Dark current applied: False
# Flat field applied: False
# Polarization factor: 0.99
# Normalization factor: 1.0
# --> /home/myspot/data/2024_07_Rosario/Ru-CGO-ex/2024-07-27_002_Ru-CGO-ex_Activtation_ramp_000002_data_000142.dat
#       q_nm^-1             I
  2.003187e-02    4.391690e-01
  1.311609e-01    3.549711e-02
  2.422899e-01    1.100976e-02
  3.534189e-01    7.050605e-03
  4.645479e-01    7.822751e-02
  5.756770e-01    3.939323e-02
  6.868060e-01    2.565473e-02
  7.979350e-01    1.266212e-01
  9.090640e-01    6.367234e-01
  1.020193e+00    1.077891e+00
  1.131322e+00    1.477614e+00
  1.242451e+00    2.110265e+00
  1.353580e+00    2.403062e+00
  1.464709e+00    2.743920e+00
  1.575838e+00    2.992027e+00
  1.686967e+00    2.696659e+00
  1.798096e+00    2.650294e+00
  1.909225e+00    2.616130e+00
  2.020354e+00    2.801012e+00
  2.131483e+00    2.760571e+00
  2.242612e+00    2.667706e+00
  2.353741e+00    2.739945e+00
  2.464870e+00    2.773315e+00
  2.575999e+00    2.663684e+00
  2.687128e+00    2.864194e+00
  2.798257e+00    2.798558e+00
  2.909386e+00    2.833969e+00
  3.020515e+00    2.841594e+00
  3.131644e+00    2.793664e+00
  3.242773e+00    2.961175e+00
  3.353902e+00    2.879049e+00
  3.465031e+00    2.926333e+00
  3.576160e+00    3.070715e+00
  3.687289e+00    3.003602e+00
  3.798418e+00    3.006074e+00
  3.909547e+00    3.048085e+00
  4.020676e+00    3.055633e+00
  4.131806e+00    2.965938e+00
  4.242935e+00    2.983219e+00
  4.354064e+00    3.020189e+00
  4.465193e+00    3.077002e+00
  4.576322e+00    3.041618e+00
  4.687451e+00    3.137979e+00
  4.798580e+00    2.988432e+00
  4.909709e+00    3.100174e+00
  5.020838e+00    3.090602e+00
  5.131967e+00    3.087061e+00
  5.243096e+00    3.077214e+00
  5.354225e+00    3.132848e+00
  5.465354e+00    2.980156e+00
  5.576483e+00    2.992923e+00
  5.687612e+00    3.068269e+00
  5.798741e+00    2.949852e+00
  5.909870e+00    2.936332e+00
  6.020999e+00    3.031600e+00
  6.132128e+00    2.987181e+00
  6.243257e+00    3.041878e+00
  6.354386e+00    3.092492e+00
  6.465515e+00    3.017932e+00
  6.576644e+00    3.003644e+00
  6.687773e+00    2.994699e+00
  6.798902e+00    2.975769e+00
  6.910031e+00    3.001951e+00
  7.021160e+00    2.988448e+00
  7.132289e+00    3.019984e+00
  7.243418e+00    2.984334e+00
  7.354547e+00    2.936584e+00
  7.465676e+00    2.992576e+00
  7.576805e+00    2.962311e+00
  7.687934e+00    2.934056e+00
  7.799063e+00    2.923378e+00
  7.910192e+00    2.839613e+00
  8.021321e+00    2.909225e+00
  8.132450e+00    2.905113e+00
  8.243579e+00    3.023148e+00
  8.354708e+00    2.945245e+00
  8.465837e+00    2.777174e+00
  8.576966e+00    2.829729e+00
  8.688095e+00    2.833393e+00
  8.799224e+00    2.771955e+00
  8.910353e+00    2.686044e+00
  9.021482e+00    2.840695e+00
  9.132611e+00    2.774214e+00
  9.243740e+00    2.760874e+00
  9.354869e+00    2.722034e+00
  9.465998e+00    2.781874e+00
  9.577127e+00    2.762368e+00
  9.688256e+00    2.729661e+00
  9.799385e+00    2.662288e+00
  9.910514e+00    2.670212e+00
  1.002164e+01    2.619479e+00
  1.013277e+01    2.645709e+00
  1.024390e+01    2.607702e+00
  1.035503e+01    2.592740e+00
  1.046616e+01    2.581030e+00
  1.057729e+01    2.617778e+00
  1.068842e+01    2.529727e+00
  1.079955e+01    2.467344e+00
  1.091068e+01    2.447959e+00
  1.102180e+01    2.479712e+00
  1.113293e+01    2.484342e+00
  1.124406e+01    2.407160e+00
  1.135519e+01    2.384009e+00
  1.146632e+01    2.354260e+00
  1.157745e+01    2.391280e+00
  1.168858e+01    2.390360e+00
  1.179971e+01    2.327270e+00
  1.191084e+01    2.294397e+00
  1.202197e+01    2.326796e+00
  1.213309e+01    2.282082e+00
  1.224422e+01    2.290073e+00
  1.235535e+01    2.321095e+00
  1.246648e+01    2.326270e+00
  1.257761e+01    2.370216e+00
  1.268874e+01    2.430624e+00
  1.279987e+01    2.669871e+00
  1.291100e+01    3.270251e+00
  1.302213e+01    6.098052e+00
  1.313326e+01    1.445222e+01
  1.324438e+01    1.150220e+01
  1.335551e+01    4.302100e+00
  1.346664e+01    2.858799e+00
  1.357777e+01    2.402208e+00
  1.368890e+01    2.242635e+00
  1.380003e+01    2.148661e+00
  1.391116e+01    2.070303e+00
  1.402229e+01    2.051645e+00
  1.413342e+01    1.961317e+00
  1.424455e+01    1.988104e+00
  1.435568e+01    1.938876e+00
  1.446680e+01    1.920994e+00
  1.457793e+01    1.928968e+00
  1.468906e+01    1.909332e+00
  1.480019e+01    1.929782e+00
  1.491132e+01    1.934307e+00
  1.502245e+01    2.173090e+00
  1.513358e+01    3.407579e+00
  1.524471e+01    5.643395e+00
  1.535584e+01    3.755751e+00
  1.546697e+01    2.177497e+00
  1.557809e+01    1.821533e+00
  1.568922e+01    1.756054e+00
  1.580035e+01    1.632638e+00
  1.591148e+01    1.646007e+00
  1.602261e+01    1.636893e+00
  1.613374e+01    1.590127e+00
  1.624487e+01    1.550571e+00
  1.635600e+01    1.511395e+00
  1.646713e+01    1.502759e+00
  1.657826e+01    1.488658e+00
  1.668938e+01    1.442783e+00
  1.680051e+01    1.475024e+00
  1.691164e+01    1.434035e+00
  1.702277e+01    1.432959e+00
  1.713390e+01    1.408542e+00
  1.724503e+01    1.416579e+00
  1.735616e+01    1.368091e+00
  1.746729e+01    1.384792e+00
  1.757842e+01    1.345143e+00
  1.768955e+01    1.339380e+00
  1.780067e+01    1.310265e+00
  1.791180e+01    1.301344e+00
  1.802293e+01    1.276362e+00
  1.813406e+01    1.297554e+00
  1.824519e+01    1.258630e+00
  1.835632e+01    1.240704e+00
  1.846745e+01    1.218618e+00
  1.857858e+01    1.222953e+00
  1.868971e+01    1.194988e+00
  1.880084e+01    1.207759e+00
  1.891196e+01    1.202070e+00
  1.902309e+01    1.179262e+00
  1.913422e+01    1.170981e+00
  1.924535e+01    1.180193e+00
  1.935648e+01    1.172092e+00
  1.946761e+01    1.146398e+00
  1.957874e+01    1.156693e+00
  1.968987e+01    1.122373e+00
  1.980100e+01    1.119445e+00
  1.991213e+01    1.127087e+00
  2.002325e+01    1.109921e+00
  2.013438e+01    1.117144e+00
  2.024551e+01    1.079032e+00
  2.035664e+01    1.083915e+00
  2.046777e+01    1.078434e+00
  2.057890e+01    1.067685e+00
  2.069003e+01    1.083162e+00
  2.080116e+01    1.066288e+00
  2.091229e+01    1.084070e+00
  2.102342e+01    1.073024e+00
  2.113455e+01    1.086451e+00
  2.124567e+01    1.081898e+00
  2.135680e+01    1.144265e+00
  2.146793e+01    1.208153e+00
  2.157906e+01    1.467824e+00
  2.169019e+01    2.303947e+00
  2.180132e+01    5.457617e+00
  2.191245e+01    9.272443e+00
  2.202358e+01    3.803653e+00
  2.213471e+01    1.777833e+00
  2.224584e+01    1.309011e+00
  2.235696e+01    1.100344e+00
  2.246809e+01    1.021941e+00
  2.257922e+01    9.874168e-01
  2.269035e+01    9.399505e-01
  2.280148e+01    9.131688e-01
  2.291261e+01    9.156659e-01
  2.302374e+01    8.843958e-01
  2.313487e+01    8.724366e-01
  2.324600e+01    8.622937e-01
  2.335713e+01    8.641712e-01
  2.346825e+01    8.618496e-01
  2.357938e+01    8.600503e-01
  2.369051e+01    8.338053e-01
  2.380164e+01    8.071924e-01
  2.391277e+01    8.055832e-01
  2.402390e+01    7.683114e-01
  2.413503e+01    7.827088e-01
  2.424616e+01    7.734833e-01
  2.435729e+01    7.984822e-01
  2.446842e+01    7.788436e-01
  2.457954e+01    7.616767e-01
  2.469067e+01    8.123600e-01
  2.480180e+01    7.808251e-01
  2.491293e+01    7.974952e-01
  2.502406e+01    7.881507e-01
  2.513519e+01    7.857589e-01
  2.524632e+01    8.482009e-01
  2.535745e+01    8.757210e-01
  2.546858e+01    9.374655e-01
  2.557971e+01    1.063534e+00
  2.569083e+01    1.394341e+00
  2.580196e+01    2.564216e+00
  2.591309e+01    6.222406e+00
  2.602422e+01    5.978376e+00
  2.613535e+01    2.230190e+00
  2.624648e+01    1.324089e+00
  2.635761e+01    1.048435e+00
  2.646874e+01    9.248502e-01
  2.657987e+01    9.023700e-01
  2.669100e+01    8.680639e-01
  2.680212e+01    8.958694e-01
  2.691325e+01    9.446195e-01
  2.702438e+01    1.045136e+00
  2.713551e+01    1.597420e+00
  2.724664e+01    2.193611e+00
  2.735777e+01    1.304778e+00
  2.746890e+01    9.685586e-01
  2.758003e+01    8.509598e-01
  2.769116e+01    8.051569e-01
  2.780229e+01    7.904441e-01
  2.791342e+01    7.770025e-01
  2.802454e+01    7.467124e-01
  2.813567e+01    7.544686e-01
  2.824680e+01    7.575557e-01
  2.835793e+01    7.650272e-01
  2.846906e+01    7.330686e-01
  2.858019e+01    7.413278e-01
  2.869132e+01    7.576975e-01
  2.880245e+01    7.406695e-01
  2.891358e+01    7.516254e-01
  2.902471e+01    7.430438e-01
  2.913583e+01    7.481837e-01
  2.924696e+01    7.291732e-01
  2.935809e+01    6.999176e-01
  2.946922e+01    7.156332e-01
  2.958035e+01    7.200819e-01
  2.969148e+01    7.208223e-01
  2.980261e+01    7.372336e-01
  2.991374e+01    7.074288e-01
  3.002487e+01    7.385567e-01
  3.013600e+01    7.266644e-01
  3.024712e+01    7.000267e-01
  3.035825e+01    6.880966e-01
  3.046938e+01    6.919580e-01
  3.058051e+01    7.049662e-01
  3.069164e+01    7.131267e-01
  3.080277e+01    7.329173e-01
  3.091390e+01    7.154630e-01
  3.102503e+01    7.166302e-01
  3.113616e+01    7.061280e-01
  3.124729e+01    7.269989e-01
  3.135841e+01    7.561588e-01
  3.146954e+01    7.654337e-01
  3.158067e+01    7.824112e-01
  3.169180e+01    9.294159e-01
  3.180293e+01    1.366802e+00
  3.191406e+01    2.243583e+00
  3.202519e+01    1.405497e+00
  3.213632e+01    9.084768e-01
  3.224745e+01    7.864016e-01
  3.235858e+01    7.106929e-01
  3.246970e+01    7.554981e-01
  3.254908e+01    7.160656e-01