File: XRD/Activation ramp/2024-07-27_002_Ru-CGO-ex_Activtation_ramp_000002_data_000102.dat
# == pyFAI calibration ==
# Distance Sample to Detector: 0.4 m
# PONI: 9.750e-02, 1.135e-01 m
# Rotations: -0.000175 0.000000 -0.000000 rad
#
# == Fit2d calibration ==
# Distance Sample-beamCenter: 400.000 mm
# Center: x=1514.000, y=1300.000 pix
# Tilt: 0.010 deg  TiltPlanRot: 0.010 deg
#
# Detector Detector	 Spline= None	 PixelSize= 7.500e-05, 7.500e-05 m
#    Detector has a mask: False
#    Detector has a dark current: False
#    detector has a flat field: False
#
# Wavelength: 6.888e-11 m
# Mask applied: user provided
# Dark current applied: False
# Flat field applied: False
# Polarization factor: 0.99
# Normalization factor: 1.0
# --> /home/myspot/data/2024_07_Rosario/Ru-CGO-ex/2024-07-27_002_Ru-CGO-ex_Activtation_ramp_000002_data_000102.dat
#       q_nm^-1             I
  2.003187e-02    0.000000e+00
  1.311609e-01    5.197033e-02
  2.422899e-01    5.941473e-02
  3.534189e-01    4.299662e-02
  4.645479e-01    2.640185e-02
  5.756770e-01    3.430966e-02
  6.868060e-01    1.449459e-02
  7.979350e-01    1.634857e-01
  9.090640e-01    5.838751e-01
  1.020193e+00    1.084468e+00
  1.131322e+00    1.275023e+00
  1.242451e+00    2.198820e+00
  1.353580e+00    2.597250e+00
  1.464709e+00    2.678520e+00
  1.575838e+00    2.985117e+00
  1.686967e+00    2.759954e+00
  1.798096e+00    2.816419e+00
  1.909225e+00    2.741767e+00
  2.020354e+00    2.734409e+00
  2.131483e+00    2.646736e+00
  2.242612e+00    2.795559e+00
  2.353741e+00    2.824169e+00
  2.464870e+00    2.705523e+00
  2.575999e+00    2.721235e+00
  2.687128e+00    2.794406e+00
  2.798257e+00    2.698081e+00
  2.909386e+00    2.851126e+00
  3.020515e+00    2.913298e+00
  3.131644e+00    2.816843e+00
  3.242773e+00    2.841990e+00
  3.353902e+00    2.964531e+00
  3.465031e+00    2.904366e+00
  3.576160e+00    2.993738e+00
  3.687289e+00    2.915627e+00
  3.798418e+00    2.922058e+00
  3.909547e+00    2.970165e+00
  4.020676e+00    3.029679e+00
  4.131806e+00    2.998657e+00
  4.242935e+00    2.985245e+00
  4.354064e+00    3.050999e+00
  4.465193e+00    3.042648e+00
  4.576322e+00    3.036090e+00
  4.687451e+00    3.045585e+00
  4.798580e+00    3.002226e+00
  4.909709e+00    3.058183e+00
  5.020838e+00    3.018305e+00
  5.131967e+00    3.047038e+00
  5.243096e+00    3.120576e+00
  5.354225e+00    3.143230e+00
  5.465354e+00    3.042029e+00
  5.576483e+00    3.049023e+00
  5.687612e+00    3.079781e+00
  5.798741e+00    3.061310e+00
  5.909870e+00    3.052095e+00
  6.020999e+00    2.935699e+00
  6.132128e+00    3.080470e+00
  6.243257e+00    2.988645e+00
  6.354386e+00    3.029079e+00
  6.465515e+00    3.014116e+00
  6.576644e+00    2.933501e+00
  6.687773e+00    2.991118e+00
  6.798902e+00    3.043473e+00
  6.910031e+00    2.985113e+00
  7.021160e+00    2.954328e+00
  7.132289e+00    2.921686e+00
  7.243418e+00    2.924375e+00
  7.354547e+00    3.000405e+00
  7.465676e+00    2.933796e+00
  7.576805e+00    2.831837e+00
  7.687934e+00    2.899053e+00
  7.799063e+00    2.903377e+00
  7.910192e+00    2.816657e+00
  8.021321e+00    2.926347e+00
  8.132450e+00    2.899453e+00
  8.243579e+00    3.007222e+00
  8.354708e+00    2.905007e+00
  8.465837e+00    2.868956e+00
  8.576966e+00    2.837365e+00
  8.688095e+00    2.843382e+00
  8.799224e+00    2.818036e+00
  8.910353e+00    2.762412e+00
  9.021482e+00    2.777623e+00
  9.132611e+00    2.795819e+00
  9.243740e+00    2.736231e+00
  9.354869e+00    2.741519e+00
  9.465998e+00    2.693976e+00
  9.577127e+00    2.610092e+00
  9.688256e+00    2.696731e+00
  9.799385e+00    2.625620e+00
  9.910514e+00    2.640596e+00
  1.002164e+01    2.645350e+00
  1.013277e+01    2.667839e+00
  1.024390e+01    2.564548e+00
  1.035503e+01    2.498719e+00
  1.046616e+01    2.603292e+00
  1.057729e+01    2.577427e+00
  1.068842e+01    2.527181e+00
  1.079955e+01    2.473067e+00
  1.091068e+01    2.506634e+00
  1.102180e+01    2.507091e+00
  1.113293e+01    2.410721e+00
  1.124406e+01    2.453122e+00
  1.135519e+01    2.418559e+00
  1.146632e+01    2.356912e+00
  1.157745e+01    2.346008e+00
  1.168858e+01    2.329088e+00
  1.179971e+01    2.367915e+00
  1.191084e+01    2.279953e+00
  1.202197e+01    2.279396e+00
  1.213309e+01    2.294500e+00
  1.224422e+01    2.289754e+00
  1.235535e+01    2.311491e+00
  1.246648e+01    2.343583e+00
  1.257761e+01    2.346752e+00
  1.268874e+01    2.430860e+00
  1.279987e+01    2.589974e+00
  1.291100e+01    3.262490e+00
  1.302213e+01    5.989772e+00
  1.313326e+01    1.461124e+01
  1.324438e+01    1.308813e+01
  1.335551e+01    4.551254e+00
  1.346664e+01    2.875287e+00
  1.357777e+01    2.470306e+00
  1.368890e+01    2.280478e+00
  1.380003e+01    2.149658e+00
  1.391116e+01    2.042876e+00
  1.402229e+01    2.030003e+00
  1.413342e+01    1.962652e+00
  1.424455e+01    1.926135e+00
  1.435568e+01    1.955647e+00
  1.446680e+01    1.947476e+00
  1.457793e+01    1.922742e+00
  1.468906e+01    1.867324e+00
  1.480019e+01    1.920927e+00
  1.491132e+01    1.949559e+00
  1.502245e+01    2.174751e+00
  1.513358e+01    3.312670e+00
  1.524471e+01    5.794981e+00
  1.535584e+01    4.143700e+00
  1.546697e+01    2.264429e+00
  1.557809e+01    1.837534e+00
  1.568922e+01    1.692791e+00
  1.580035e+01    1.647303e+00
  1.591148e+01    1.628670e+00
  1.602261e+01    1.573648e+00
  1.613374e+01    1.584577e+00
  1.624487e+01    1.545600e+00
  1.635600e+01    1.509365e+00
  1.646713e+01    1.505191e+00
  1.657826e+01    1.493866e+00
  1.668938e+01    1.439154e+00
  1.680051e+01    1.430812e+00
  1.691164e+01    1.433546e+00
  1.702277e+01    1.404484e+00
  1.713390e+01    1.411501e+00
  1.724503e+01    1.379061e+00
  1.735616e+01    1.343939e+00
  1.746729e+01    1.334430e+00
  1.757842e+01    1.334865e+00
  1.768955e+01    1.319719e+00
  1.780067e+01    1.325577e+00
  1.791180e+01    1.287107e+00
  1.802293e+01    1.299241e+00
  1.813406e+01    1.271851e+00
  1.824519e+01    1.289151e+00
  1.835632e+01    1.254369e+00
  1.846745e+01    1.222194e+00
  1.857858e+01    1.223094e+00
  1.868971e+01    1.224656e+00
  1.880084e+01    1.220420e+00
  1.891196e+01    1.192626e+00
  1.902309e+01    1.210397e+00
  1.913422e+01    1.182727e+00
  1.924535e+01    1.181229e+00
  1.935648e+01    1.124754e+00
  1.946761e+01    1.138703e+00
  1.957874e+01    1.140817e+00
  1.968987e+01    1.156679e+00
  1.980100e+01    1.131194e+00
  1.991213e+01    1.110424e+00
  2.002325e+01    1.104989e+00
  2.013438e+01    1.078844e+00
  2.024551e+01    1.079743e+00
  2.035664e+01    1.115888e+00
  2.046777e+01    1.089658e+00
  2.057890e+01    1.075745e+00
  2.069003e+01    1.107357e+00
  2.080116e+01    1.060166e+00
  2.091229e+01    1.073296e+00
  2.102342e+01    1.070127e+00
  2.113455e+01    1.071137e+00
  2.124567e+01    1.092015e+00
  2.135680e+01    1.163540e+00
  2.146793e+01    1.214594e+00
  2.157906e+01    1.434540e+00
  2.169019e+01    2.186233e+00
  2.180132e+01    5.289880e+00
  2.191245e+01    9.788532e+00
  2.202358e+01    4.343880e+00
  2.213471e+01    1.946597e+00
  2.224584e+01    1.327469e+00
  2.235696e+01    1.130984e+00
  2.246809e+01    1.047618e+00
  2.257922e+01    9.996192e-01
  2.269035e+01    9.426962e-01
  2.280148e+01    9.307944e-01
  2.291261e+01    8.959376e-01
  2.302374e+01    8.982549e-01
  2.313487e+01    8.967561e-01
  2.324600e+01    8.709018e-01
  2.335713e+01    8.486181e-01
  2.346825e+01    8.511884e-01
  2.357938e+01    8.430034e-01
  2.369051e+01    8.302590e-01
  2.380164e+01    7.993379e-01
  2.391277e+01    8.096699e-01
  2.402390e+01    7.805415e-01
  2.413503e+01    7.675475e-01
  2.424616e+01    7.797688e-01
  2.435729e+01    7.734166e-01
  2.446842e+01    7.654181e-01
  2.457954e+01    7.582648e-01
  2.469067e+01    8.129339e-01
  2.480180e+01    7.865781e-01
  2.491293e+01    8.176897e-01
  2.502406e+01    7.925552e-01
  2.513519e+01    8.239932e-01
  2.524632e+01    8.374017e-01
  2.535745e+01    8.662482e-01
  2.546858e+01    9.153907e-01
  2.557971e+01    1.063489e+00
  2.569083e+01    1.358100e+00
  2.580196e+01    2.412892e+00
  2.591309e+01    6.055640e+00
  2.602422e+01    7.039276e+00
  2.613535e+01    2.624863e+00
  2.624648e+01    1.400504e+00
  2.635761e+01    1.060328e+00
  2.646874e+01    9.668399e-01
  2.657987e+01    9.273086e-01
  2.669100e+01    9.107894e-01
  2.680212e+01    8.911847e-01
  2.691325e+01    9.220205e-01
  2.702438e+01    1.057468e+00
  2.713551e+01    1.539438e+00
  2.724664e+01    2.332178e+00
  2.735777e+01    1.419729e+00
  2.746890e+01    1.007970e+00
  2.758003e+01    8.758573e-01
  2.769116e+01    8.339169e-01
  2.780229e+01    7.917659e-01
  2.791342e+01    8.042542e-01
  2.802454e+01    7.865381e-01
  2.813567e+01    8.058540e-01
  2.824680e+01    7.689602e-01
  2.835793e+01    7.546876e-01
  2.846906e+01    7.738540e-01
  2.858019e+01    7.661794e-01
  2.869132e+01    7.498117e-01
  2.880245e+01    7.506163e-01
  2.891358e+01    7.514001e-01
  2.902471e+01    7.380750e-01
  2.913583e+01    7.323179e-01
  2.924696e+01    7.142429e-01
  2.935809e+01    7.459772e-01
  2.946922e+01    7.045150e-01
  2.958035e+01    7.089362e-01
  2.969148e+01    7.058463e-01
  2.980261e+01    7.301463e-01
  2.991374e+01    7.046884e-01
  3.002487e+01    7.100052e-01
  3.013600e+01    6.985521e-01
  3.024712e+01    7.128016e-01
  3.035825e+01    7.046769e-01
  3.046938e+01    6.996015e-01
  3.058051e+01    7.093154e-01
  3.069164e+01    7.172776e-01
  3.080277e+01    6.957110e-01
  3.091390e+01    7.033467e-01
  3.102503e+01    7.350075e-01
  3.113616e+01    7.054150e-01
  3.124729e+01    7.241542e-01
  3.135841e+01    7.297394e-01
  3.146954e+01    7.409881e-01
  3.158067e+01    7.862781e-01
  3.169180e+01    9.317176e-01
  3.180293e+01    1.299619e+00
  3.191406e+01    2.257400e+00
  3.202519e+01    1.618013e+00
  3.213632e+01    9.747729e-01
  3.224745e+01    7.850397e-01
  3.235858e+01    7.468308e-01
  3.246970e+01    7.339769e-01
  3.254908e+01    7.153973e-01