File: XRD/Activation ramp/2024-07-27_002_Ru-CGO-ex_Activtation_ramp_000002_data_000161.dat
# == pyFAI calibration ==
# Distance Sample to Detector: 0.4 m
# PONI: 9.750e-02, 1.135e-01 m
# Rotations: -0.000175 0.000000 -0.000000 rad
#
# == Fit2d calibration ==
# Distance Sample-beamCenter: 400.000 mm
# Center: x=1514.000, y=1300.000 pix
# Tilt: 0.010 deg  TiltPlanRot: 0.010 deg
#
# Detector Detector	 Spline= None	 PixelSize= 7.500e-05, 7.500e-05 m
#    Detector has a mask: False
#    Detector has a dark current: False
#    detector has a flat field: False
#
# Wavelength: 6.888e-11 m
# Mask applied: user provided
# Dark current applied: False
# Flat field applied: False
# Polarization factor: 0.99
# Normalization factor: 1.0
# --> /home/myspot/data/2024_07_Rosario/Ru-CGO-ex/2024-07-27_002_Ru-CGO-ex_Activtation_ramp_000002_data_000161.dat
#       q_nm^-1             I
  2.003187e-02    0.000000e+00
  1.311609e-01    5.505009e-02
  2.422899e-01    1.553605e-02
  3.534189e-01    3.407949e-02
  4.645479e-01    3.754911e-02
  5.756770e-01    3.687072e-02
  6.868060e-01    3.605521e-02
  7.979350e-01    1.473600e-01
  9.090640e-01    5.615217e-01
  1.020193e+00    1.205870e+00
  1.131322e+00    1.430072e+00
  1.242451e+00    2.136252e+00
  1.353580e+00    2.421964e+00
  1.464709e+00    2.874584e+00
  1.575838e+00    2.766576e+00
  1.686967e+00    2.736654e+00
  1.798096e+00    2.573290e+00
  1.909225e+00    2.669230e+00
  2.020354e+00    2.622058e+00
  2.131483e+00    2.803103e+00
  2.242612e+00    2.729861e+00
  2.353741e+00    2.691341e+00
  2.464870e+00    2.724740e+00
  2.575999e+00    2.752464e+00
  2.687128e+00    2.808738e+00
  2.798257e+00    2.822574e+00
  2.909386e+00    2.812067e+00
  3.020515e+00    2.879087e+00
  3.131644e+00    2.828014e+00
  3.242773e+00    2.877067e+00
  3.353902e+00    2.990477e+00
  3.465031e+00    3.086628e+00
  3.576160e+00    2.963771e+00
  3.687289e+00    3.069315e+00
  3.798418e+00    2.919684e+00
  3.909547e+00    3.062917e+00
  4.020676e+00    3.030984e+00
  4.131806e+00    3.054171e+00
  4.242935e+00    3.065188e+00
  4.354064e+00    3.031619e+00
  4.465193e+00    3.033109e+00
  4.576322e+00    3.077140e+00
  4.687451e+00    3.092033e+00
  4.798580e+00    3.117041e+00
  4.909709e+00    3.172228e+00
  5.020838e+00    3.168612e+00
  5.131967e+00    3.151667e+00
  5.243096e+00    3.041531e+00
  5.354225e+00    3.172518e+00
  5.465354e+00    3.091500e+00
  5.576483e+00    2.966202e+00
  5.687612e+00    3.103001e+00
  5.798741e+00    3.164711e+00
  5.909870e+00    3.112590e+00
  6.020999e+00    3.047907e+00
  6.132128e+00    3.143940e+00
  6.243257e+00    3.089690e+00
  6.354386e+00    3.050260e+00
  6.465515e+00    3.076569e+00
  6.576644e+00    3.074876e+00
  6.687773e+00    3.053676e+00
  6.798902e+00    2.909429e+00
  6.910031e+00    3.034609e+00
  7.021160e+00    3.055715e+00
  7.132289e+00    3.017130e+00
  7.243418e+00    3.038107e+00
  7.354547e+00    3.024290e+00
  7.465676e+00    3.043832e+00
  7.576805e+00    3.007014e+00
  7.687934e+00    3.021701e+00
  7.799063e+00    2.951175e+00
  7.910192e+00    2.910479e+00
  8.021321e+00    2.927192e+00
  8.132450e+00    3.027845e+00
  8.243579e+00    2.915090e+00
  8.354708e+00    2.879995e+00
  8.465837e+00    2.854073e+00
  8.576966e+00    2.857983e+00
  8.688095e+00    2.919358e+00
  8.799224e+00    2.898890e+00
  8.910353e+00    2.877382e+00
  9.021482e+00    2.845483e+00
  9.132611e+00    2.791340e+00
  9.243740e+00    2.791380e+00
  9.354869e+00    2.842434e+00
  9.465998e+00    2.747870e+00
  9.577127e+00    2.855623e+00
  9.688256e+00    2.777757e+00
  9.799385e+00    2.754009e+00
  9.910514e+00    2.689638e+00
  1.002164e+01    2.653158e+00
  1.013277e+01    2.659090e+00
  1.024390e+01    2.648828e+00
  1.035503e+01    2.569660e+00
  1.046616e+01    2.621941e+00
  1.057729e+01    2.591485e+00
  1.068842e+01    2.505782e+00
  1.079955e+01    2.541803e+00
  1.091068e+01    2.528117e+00
  1.102180e+01    2.524757e+00
  1.113293e+01    2.502904e+00
  1.124406e+01    2.519226e+00
  1.135519e+01    2.431744e+00
  1.146632e+01    2.447640e+00
  1.157745e+01    2.411894e+00
  1.168858e+01    2.409155e+00
  1.179971e+01    2.375544e+00
  1.191084e+01    2.365343e+00
  1.202197e+01    2.316423e+00
  1.213309e+01    2.305406e+00
  1.224422e+01    2.319844e+00
  1.235535e+01    2.340566e+00
  1.246648e+01    2.324460e+00
  1.257761e+01    2.429110e+00
  1.268874e+01    2.479666e+00
  1.279987e+01    2.681510e+00
  1.291100e+01    3.296283e+00
  1.302213e+01    6.263950e+00
  1.313326e+01    1.439024e+01
  1.324438e+01    1.083025e+01
  1.335551e+01    4.197220e+00
  1.346664e+01    2.845755e+00
  1.357777e+01    2.397131e+00
  1.368890e+01    2.268738e+00
  1.380003e+01    2.139287e+00
  1.391116e+01    2.087429e+00
  1.402229e+01    2.065804e+00
  1.413342e+01    1.991441e+00
  1.424455e+01    1.948652e+00
  1.435568e+01    1.952619e+00
  1.446680e+01    1.917871e+00
  1.457793e+01    1.920660e+00
  1.468906e+01    1.863557e+00
  1.480019e+01    1.942518e+00
  1.491132e+01    1.938977e+00
  1.502245e+01    2.236585e+00
  1.513358e+01    3.433605e+00
  1.524471e+01    5.633810e+00
  1.535584e+01    3.569154e+00
  1.546697e+01    2.176102e+00
  1.557809e+01    1.891755e+00
  1.568922e+01    1.712836e+00
  1.580035e+01    1.638043e+00
  1.591148e+01    1.645829e+00
  1.602261e+01    1.608583e+00
  1.613374e+01    1.635334e+00
  1.624487e+01    1.532365e+00
  1.635600e+01    1.580371e+00
  1.646713e+01    1.541940e+00
  1.657826e+01    1.482835e+00
  1.668938e+01    1.495566e+00
  1.680051e+01    1.457010e+00
  1.691164e+01    1.454900e+00
  1.702277e+01    1.432258e+00
  1.713390e+01    1.409075e+00
  1.724503e+01    1.406819e+00
  1.735616e+01    1.359212e+00
  1.746729e+01    1.383032e+00
  1.757842e+01    1.354739e+00
  1.768955e+01    1.334301e+00
  1.780067e+01    1.335990e+00
  1.791180e+01    1.313621e+00
  1.802293e+01    1.308894e+00
  1.813406e+01    1.304487e+00
  1.824519e+01    1.306036e+00
  1.835632e+01    1.282569e+00
  1.846745e+01    1.278102e+00
  1.857858e+01    1.259560e+00
  1.868971e+01    1.260888e+00
  1.880084e+01    1.217122e+00
  1.891196e+01    1.194234e+00
  1.902309e+01    1.171336e+00
  1.913422e+01    1.201245e+00
  1.924535e+01    1.199936e+00
  1.935648e+01    1.173204e+00
  1.946761e+01    1.176340e+00
  1.957874e+01    1.196385e+00
  1.968987e+01    1.150055e+00
  1.980100e+01    1.124929e+00
  1.991213e+01    1.117659e+00
  2.002325e+01    1.081213e+00
  2.013438e+01    1.124393e+00
  2.024551e+01    1.108283e+00
  2.035664e+01    1.084185e+00
  2.046777e+01    1.058365e+00
  2.057890e+01    1.095524e+00
  2.069003e+01    1.086385e+00
  2.080116e+01    1.104006e+00
  2.091229e+01    1.076202e+00
  2.102342e+01    1.102335e+00
  2.113455e+01    1.069293e+00
  2.124567e+01    1.120820e+00
  2.135680e+01    1.169379e+00
  2.146793e+01    1.216571e+00
  2.157906e+01    1.480599e+00
  2.169019e+01    2.339812e+00
  2.180132e+01    5.642091e+00
  2.191245e+01    8.940114e+00
  2.202358e+01    3.478322e+00
  2.213471e+01    1.750174e+00
  2.224584e+01    1.313203e+00
  2.235696e+01    1.105693e+00
  2.246809e+01    1.022535e+00
  2.257922e+01    9.937754e-01
  2.269035e+01    9.631498e-01
  2.280148e+01    9.288121e-01
  2.291261e+01    8.925444e-01
  2.302374e+01    8.892499e-01
  2.313487e+01    9.002902e-01
  2.324600e+01    8.976238e-01
  2.335713e+01    8.438097e-01
  2.346825e+01    8.526851e-01
  2.357938e+01    8.467370e-01
  2.369051e+01    8.445240e-01
  2.380164e+01    7.953434e-01
  2.391277e+01    8.077605e-01
  2.402390e+01    7.955955e-01
  2.413503e+01    7.775729e-01
  2.424616e+01    7.796020e-01
  2.435729e+01    7.866563e-01
  2.446842e+01    7.976393e-01
  2.457954e+01    7.725892e-01
  2.469067e+01    7.981172e-01
  2.480180e+01    7.992775e-01
  2.491293e+01    7.997142e-01
  2.502406e+01    8.023780e-01
  2.513519e+01    8.197199e-01
  2.524632e+01    8.493435e-01
  2.535745e+01    8.644680e-01
  2.546858e+01    9.487630e-01
  2.557971e+01    1.050409e+00
  2.569083e+01    1.457272e+00
  2.580196e+01    2.711491e+00
  2.591309e+01    6.359912e+00
  2.602422e+01    5.495844e+00
  2.613535e+01    2.097445e+00
  2.624648e+01    1.258187e+00
  2.635761e+01    1.022985e+00
  2.646874e+01    9.198669e-01
  2.657987e+01    8.969010e-01
  2.669100e+01    8.574408e-01
  2.680212e+01    8.992774e-01
  2.691325e+01    9.240363e-01
  2.702438e+01    1.092046e+00
  2.713551e+01    1.653844e+00
  2.724664e+01    2.117660e+00
  2.735777e+01    1.217094e+00
  2.746890e+01    9.454082e-01
  2.758003e+01    8.564526e-01
  2.769116e+01    8.245893e-01
  2.780229e+01    8.017587e-01
  2.791342e+01    8.103807e-01
  2.802454e+01    7.848291e-01
  2.813567e+01    7.596258e-01
  2.824680e+01    7.691981e-01
  2.835793e+01    7.437606e-01
  2.846906e+01    7.578233e-01
  2.858019e+01    7.589511e-01
  2.869132e+01    7.439367e-01
  2.880245e+01    7.486353e-01
  2.891358e+01    7.566648e-01
  2.902471e+01    7.099646e-01
  2.913583e+01    7.235603e-01
  2.924696e+01    7.138021e-01
  2.935809e+01    7.225696e-01
  2.946922e+01    7.151629e-01
  2.958035e+01    7.116914e-01
  2.969148e+01    7.421706e-01
  2.980261e+01    7.205090e-01
  2.991374e+01    7.211701e-01
  3.002487e+01    7.508216e-01
  3.013600e+01    7.265749e-01
  3.024712e+01    7.258989e-01
  3.035825e+01    7.065933e-01
  3.046938e+01    7.132821e-01
  3.058051e+01    7.165554e-01
  3.069164e+01    7.032014e-01
  3.080277e+01    7.199827e-01
  3.091390e+01    7.024456e-01
  3.102503e+01    7.026118e-01
  3.113616e+01    7.065639e-01
  3.124729e+01    7.499713e-01
  3.135841e+01    7.530638e-01
  3.146954e+01    7.543418e-01
  3.158067e+01    7.982991e-01
  3.169180e+01    9.535413e-01
  3.180293e+01    1.419363e+00
  3.191406e+01    2.153844e+00
  3.202519e+01    1.325030e+00
  3.213632e+01    8.777061e-01
  3.224745e+01    7.700732e-01
  3.235858e+01    7.566102e-01
  3.246970e+01    7.294052e-01
  3.254908e+01    6.965877e-01