File: XRD/Activation ramp/2024-07-27_002_Ru-CGO-ex_Activtation_ramp_000002_data_000152.dat
# == pyFAI calibration ==
# Distance Sample to Detector: 0.4 m
# PONI: 9.750e-02, 1.135e-01 m
# Rotations: -0.000175 0.000000 -0.000000 rad
#
# == Fit2d calibration ==
# Distance Sample-beamCenter: 400.000 mm
# Center: x=1514.000, y=1300.000 pix
# Tilt: 0.010 deg  TiltPlanRot: 0.010 deg
#
# Detector Detector	 Spline= None	 PixelSize= 7.500e-05, 7.500e-05 m
#    Detector has a mask: False
#    Detector has a dark current: False
#    detector has a flat field: False
#
# Wavelength: 6.888e-11 m
# Mask applied: user provided
# Dark current applied: False
# Flat field applied: False
# Polarization factor: 0.99
# Normalization factor: 1.0
# --> /home/myspot/data/2024_07_Rosario/Ru-CGO-ex/2024-07-27_002_Ru-CGO-ex_Activtation_ramp_000002_data_000152.dat
#       q_nm^-1             I
  2.003187e-02    2.195846e-01
  1.311609e-01    3.542070e-02
  2.422899e-01    1.592915e-02
  3.534189e-01    6.056444e-02
  4.645479e-01    8.248577e-02
  5.756770e-01    3.742890e-02
  6.868060e-01    3.154738e-02
  7.979350e-01    1.580897e-01
  9.090640e-01    5.229384e-01
  1.020193e+00    1.233309e+00
  1.131322e+00    1.369015e+00
  1.242451e+00    2.230667e+00
  1.353580e+00    2.533294e+00
  1.464709e+00    2.762804e+00
  1.575838e+00    3.021252e+00
  1.686967e+00    2.785144e+00
  1.798096e+00    2.775194e+00
  1.909225e+00    2.703551e+00
  2.020354e+00    2.699054e+00
  2.131483e+00    2.772061e+00
  2.242612e+00    2.793590e+00
  2.353741e+00    2.740401e+00
  2.464870e+00    2.855396e+00
  2.575999e+00    2.804798e+00
  2.687128e+00    2.869219e+00
  2.798257e+00    2.855119e+00
  2.909386e+00    2.914968e+00
  3.020515e+00    2.922187e+00
  3.131644e+00    2.839418e+00
  3.242773e+00    2.990844e+00
  3.353902e+00    2.897614e+00
  3.465031e+00    2.948647e+00
  3.576160e+00    3.045148e+00
  3.687289e+00    3.021400e+00
  3.798418e+00    3.047299e+00
  3.909547e+00    2.990501e+00
  4.020676e+00    3.046084e+00
  4.131806e+00    3.074372e+00
  4.242935e+00    3.019227e+00
  4.354064e+00    3.113199e+00
  4.465193e+00    3.134303e+00
  4.576322e+00    3.036323e+00
  4.687451e+00    3.086412e+00
  4.798580e+00    3.086509e+00
  4.909709e+00    3.182449e+00
  5.020838e+00    3.152000e+00
  5.131967e+00    3.223505e+00
  5.243096e+00    3.151910e+00
  5.354225e+00    3.214562e+00
  5.465354e+00    3.064905e+00
  5.576483e+00    3.074670e+00
  5.687612e+00    3.070614e+00
  5.798741e+00    3.053946e+00
  5.909870e+00    3.042559e+00
  6.020999e+00    3.061575e+00
  6.132128e+00    3.125334e+00
  6.243257e+00    3.060444e+00
  6.354386e+00    3.056235e+00
  6.465515e+00    3.061289e+00
  6.576644e+00    3.037497e+00
  6.687773e+00    3.045414e+00
  6.798902e+00    3.067436e+00
  6.910031e+00    3.027205e+00
  7.021160e+00    3.001891e+00
  7.132289e+00    3.021364e+00
  7.243418e+00    3.070820e+00
  7.354547e+00    3.034517e+00
  7.465676e+00    2.930109e+00
  7.576805e+00    2.966094e+00
  7.687934e+00    3.023315e+00
  7.799063e+00    2.958412e+00
  7.910192e+00    2.949888e+00
  8.021321e+00    2.947525e+00
  8.132450e+00    2.960041e+00
  8.243579e+00    2.949456e+00
  8.354708e+00    2.928540e+00
  8.465837e+00    2.861137e+00
  8.576966e+00    2.903223e+00
  8.688095e+00    2.879201e+00
  8.799224e+00    2.862091e+00
  8.910353e+00    2.853038e+00
  9.021482e+00    2.826216e+00
  9.132611e+00    2.790435e+00
  9.243740e+00    2.833667e+00
  9.354869e+00    2.822149e+00
  9.465998e+00    2.736027e+00
  9.577127e+00    2.779751e+00
  9.688256e+00    2.733555e+00
  9.799385e+00    2.702912e+00
  9.910514e+00    2.693871e+00
  1.002164e+01    2.681990e+00
  1.013277e+01    2.670585e+00
  1.024390e+01    2.610841e+00
  1.035503e+01    2.603166e+00
  1.046616e+01    2.580790e+00
  1.057729e+01    2.589681e+00
  1.068842e+01    2.550587e+00
  1.079955e+01    2.526072e+00
  1.091068e+01    2.531275e+00
  1.102180e+01    2.488656e+00
  1.113293e+01    2.484513e+00
  1.124406e+01    2.500562e+00
  1.135519e+01    2.429286e+00
  1.146632e+01    2.407596e+00
  1.157745e+01    2.430363e+00
  1.168858e+01    2.357023e+00
  1.179971e+01    2.338987e+00
  1.191084e+01    2.373269e+00
  1.202197e+01    2.283811e+00
  1.213309e+01    2.354203e+00
  1.224422e+01    2.342872e+00
  1.235535e+01    2.319118e+00
  1.246648e+01    2.378585e+00
  1.257761e+01    2.399773e+00
  1.268874e+01    2.478763e+00
  1.279987e+01    2.689785e+00
  1.291100e+01    3.330948e+00
  1.302213e+01    6.264561e+00
  1.313326e+01    1.462848e+01
  1.324438e+01    1.112374e+01
  1.335551e+01    4.259319e+00
  1.346664e+01    2.839348e+00
  1.357777e+01    2.448092e+00
  1.368890e+01    2.291588e+00
  1.380003e+01    2.202026e+00
  1.391116e+01    2.113464e+00
  1.402229e+01    2.060975e+00
  1.413342e+01    2.077945e+00
  1.424455e+01    1.990496e+00
  1.435568e+01    1.994367e+00
  1.446680e+01    1.925950e+00
  1.457793e+01    1.937354e+00
  1.468906e+01    1.960451e+00
  1.480019e+01    1.895207e+00
  1.491132e+01    1.983967e+00
  1.502245e+01    2.255740e+00
  1.513358e+01    3.446845e+00
  1.524471e+01    5.664651e+00
  1.535584e+01    3.685712e+00
  1.546697e+01    2.235956e+00
  1.557809e+01    1.918446e+00
  1.568922e+01    1.742841e+00
  1.580035e+01    1.714514e+00
  1.591148e+01    1.652471e+00
  1.602261e+01    1.635252e+00
  1.613374e+01    1.594367e+00
  1.624487e+01    1.589186e+00
  1.635600e+01    1.538008e+00
  1.646713e+01    1.527150e+00
  1.657826e+01    1.484540e+00
  1.668938e+01    1.499718e+00
  1.680051e+01    1.463794e+00
  1.691164e+01    1.461783e+00
  1.702277e+01    1.422012e+00
  1.713390e+01    1.452271e+00
  1.724503e+01    1.421881e+00
  1.735616e+01    1.395915e+00
  1.746729e+01    1.401013e+00
  1.757842e+01    1.359327e+00
  1.768955e+01    1.346218e+00
  1.780067e+01    1.367736e+00
  1.791180e+01    1.309342e+00
  1.802293e+01    1.318763e+00
  1.813406e+01    1.309888e+00
  1.824519e+01    1.283299e+00
  1.835632e+01    1.283852e+00
  1.846745e+01    1.264463e+00
  1.857858e+01    1.250096e+00
  1.868971e+01    1.247166e+00
  1.880084e+01    1.237343e+00
  1.891196e+01    1.235909e+00
  1.902309e+01    1.195121e+00
  1.913422e+01    1.191396e+00
  1.924535e+01    1.198920e+00
  1.935648e+01    1.190119e+00
  1.946761e+01    1.184126e+00
  1.957874e+01    1.169020e+00
  1.968987e+01    1.167444e+00
  1.980100e+01    1.159007e+00
  1.991213e+01    1.121480e+00
  2.002325e+01    1.120382e+00
  2.013438e+01    1.152661e+00
  2.024551e+01    1.099992e+00
  2.035664e+01    1.118464e+00
  2.046777e+01    1.096451e+00
  2.057890e+01    1.092443e+00
  2.069003e+01    1.082346e+00
  2.080116e+01    1.095530e+00
  2.091229e+01    1.055358e+00
  2.102342e+01    1.093444e+00
  2.113455e+01    1.100595e+00
  2.124567e+01    1.119002e+00
  2.135680e+01    1.163848e+00
  2.146793e+01    1.228654e+00
  2.157906e+01    1.483392e+00
  2.169019e+01    2.403636e+00
  2.180132e+01    5.638625e+00
  2.191245e+01    9.118389e+00
  2.202358e+01    3.673614e+00
  2.213471e+01    1.747082e+00
  2.224584e+01    1.301051e+00
  2.235696e+01    1.125065e+00
  2.246809e+01    1.046450e+00
  2.257922e+01    9.822299e-01
  2.269035e+01    9.467723e-01
  2.280148e+01    9.381049e-01
  2.291261e+01    9.107702e-01
  2.302374e+01    9.160687e-01
  2.313487e+01    8.646308e-01
  2.324600e+01    8.530702e-01
  2.335713e+01    8.743785e-01
  2.346825e+01    8.597125e-01
  2.357938e+01    8.467601e-01
  2.369051e+01    8.493592e-01
  2.380164e+01    7.941186e-01
  2.391277e+01    8.205225e-01
  2.402390e+01    8.054088e-01
  2.413503e+01    8.041701e-01
  2.424616e+01    7.750079e-01
  2.435729e+01    7.731882e-01
  2.446842e+01    8.007192e-01
  2.457954e+01    7.778431e-01
  2.469067e+01    7.680610e-01
  2.480180e+01    7.878965e-01
  2.491293e+01    7.883506e-01
  2.502406e+01    7.978726e-01
  2.513519e+01    8.107126e-01
  2.524632e+01    8.439559e-01
  2.535745e+01    8.886226e-01
  2.546858e+01    9.600244e-01
  2.557971e+01    1.086919e+00
  2.569083e+01    1.388659e+00
  2.580196e+01    2.688757e+00
  2.591309e+01    6.354142e+00
  2.602422e+01    5.828657e+00
  2.613535e+01    2.171185e+00
  2.624648e+01    1.307751e+00
  2.635761e+01    1.006540e+00
  2.646874e+01    9.367155e-01
  2.657987e+01    9.097621e-01
  2.669100e+01    8.658000e-01
  2.680212e+01    8.832494e-01
  2.691325e+01    9.205406e-01
  2.702438e+01    1.094343e+00
  2.713551e+01    1.639805e+00
  2.724664e+01    2.202009e+00
  2.735777e+01    1.270349e+00
  2.746890e+01    9.555015e-01
  2.758003e+01    8.597228e-01
  2.769116e+01    8.353841e-01
  2.780229e+01    8.180339e-01
  2.791342e+01    7.939989e-01
  2.802454e+01    7.924038e-01
  2.813567e+01    7.817619e-01
  2.824680e+01    7.668545e-01
  2.835793e+01    7.890903e-01
  2.846906e+01    7.524732e-01
  2.858019e+01    7.472306e-01
  2.869132e+01    7.493773e-01
  2.880245e+01    7.569633e-01
  2.891358e+01    7.420564e-01
  2.902471e+01    7.458886e-01
  2.913583e+01    7.328159e-01
  2.924696e+01    7.345167e-01
  2.935809e+01    7.207718e-01
  2.946922e+01    7.096815e-01
  2.958035e+01    7.314427e-01
  2.969148e+01    6.894661e-01
  2.980261e+01    7.300152e-01
  2.991374e+01    7.216076e-01
  3.002487e+01    7.314397e-01
  3.013600e+01    7.331567e-01
  3.024712e+01    7.271622e-01
  3.035825e+01    7.213085e-01
  3.046938e+01    6.989794e-01
  3.058051e+01    7.014258e-01
  3.069164e+01    7.411642e-01
  3.080277e+01    7.216962e-01
  3.091390e+01    7.022080e-01
  3.102503e+01    7.482786e-01
  3.113616e+01    7.386940e-01
  3.124729e+01    7.291728e-01
  3.135841e+01    7.514668e-01
  3.146954e+01    7.551377e-01
  3.158067e+01    8.046794e-01
  3.169180e+01    9.459755e-01
  3.180293e+01    1.394340e+00
  3.191406e+01    2.173032e+00
  3.202519e+01    1.366472e+00
  3.213632e+01    8.780205e-01
  3.224745e+01    7.841245e-01
  3.235858e+01    7.443058e-01
  3.246970e+01    7.207775e-01
  3.254908e+01    7.340686e-01