File: XRD/Activation ramp/2024-07-27_002_Ru-CGO-ex_Activtation_ramp_000002_data_000074.dat
# == pyFAI calibration ==
# Distance Sample to Detector: 0.4 m
# PONI: 9.750e-02, 1.135e-01 m
# Rotations: -0.000175 0.000000 -0.000000 rad
#
# == Fit2d calibration ==
# Distance Sample-beamCenter: 400.000 mm
# Center: x=1514.000, y=1300.000 pix
# Tilt: 0.010 deg  TiltPlanRot: 0.010 deg
#
# Detector Detector	 Spline= None	 PixelSize= 7.500e-05, 7.500e-05 m
#    Detector has a mask: False
#    Detector has a dark current: False
#    detector has a flat field: False
#
# Wavelength: 6.888e-11 m
# Mask applied: user provided
# Dark current applied: False
# Flat field applied: False
# Polarization factor: 0.99
# Normalization factor: 1.0
# --> /home/myspot/data/2024_07_Rosario/Ru-CGO-ex/2024-07-27_002_Ru-CGO-ex_Activtation_ramp_000002_data_000074.dat
#       q_nm^-1             I
  2.003187e-02    3.620515e-01
  1.311609e-01    2.051710e-04
  2.422899e-01    2.040422e-02
  3.534189e-01    5.014762e-02
  4.645479e-01    4.474181e-02
  5.756770e-01    2.453686e-02
  6.868060e-01    2.296892e-02
  7.979350e-01    1.587592e-01
  9.090640e-01    6.641943e-01
  1.020193e+00    1.040616e+00
  1.131322e+00    1.483612e+00
  1.242451e+00    2.238774e+00
  1.353580e+00    2.515882e+00
  1.464709e+00    2.946408e+00
  1.575838e+00    3.049668e+00
  1.686967e+00    2.921658e+00
  1.798096e+00    2.819591e+00
  1.909225e+00    2.836704e+00
  2.020354e+00    2.706800e+00
  2.131483e+00    2.817740e+00
  2.242612e+00    2.782614e+00
  2.353741e+00    2.716772e+00
  2.464870e+00    2.639994e+00
  2.575999e+00    2.643840e+00
  2.687128e+00    2.826555e+00
  2.798257e+00    2.724667e+00
  2.909386e+00    2.831123e+00
  3.020515e+00    2.889764e+00
  3.131644e+00    2.791009e+00
  3.242773e+00    2.885140e+00
  3.353902e+00    2.904382e+00
  3.465031e+00    2.970705e+00
  3.576160e+00    2.947425e+00
  3.687289e+00    2.898206e+00
  3.798418e+00    3.033505e+00
  3.909547e+00    2.973680e+00
  4.020676e+00    3.037268e+00
  4.131806e+00    3.023955e+00
  4.242935e+00    3.076014e+00
  4.354064e+00    3.030971e+00
  4.465193e+00    3.057834e+00
  4.576322e+00    3.009576e+00
  4.687451e+00    3.023865e+00
  4.798580e+00    3.144505e+00
  4.909709e+00    3.061799e+00
  5.020838e+00    3.152723e+00
  5.131967e+00    3.091862e+00
  5.243096e+00    3.114764e+00
  5.354225e+00    3.046673e+00
  5.465354e+00    3.067847e+00
  5.576483e+00    3.032229e+00
  5.687612e+00    3.081528e+00
  5.798741e+00    3.002772e+00
  5.909870e+00    3.067294e+00
  6.020999e+00    2.946957e+00
  6.132128e+00    3.052412e+00
  6.243257e+00    3.107236e+00
  6.354386e+00    3.025330e+00
  6.465515e+00    3.031288e+00
  6.576644e+00    3.071892e+00
  6.687773e+00    2.983624e+00
  6.798902e+00    2.965017e+00
  6.910031e+00    3.013832e+00
  7.021160e+00    2.979039e+00
  7.132289e+00    3.047281e+00
  7.243418e+00    2.967626e+00
  7.354547e+00    2.919289e+00
  7.465676e+00    3.003298e+00
  7.576805e+00    2.933683e+00
  7.687934e+00    2.975816e+00
  7.799063e+00    2.931045e+00
  7.910192e+00    2.920880e+00
  8.021321e+00    2.903141e+00
  8.132450e+00    2.909039e+00
  8.243579e+00    3.024454e+00
  8.354708e+00    2.921309e+00
  8.465837e+00    2.865205e+00
  8.576966e+00    2.890079e+00
  8.688095e+00    2.887864e+00
  8.799224e+00    2.887397e+00
  8.910353e+00    2.866693e+00
  9.021482e+00    2.812729e+00
  9.132611e+00    2.841049e+00
  9.243740e+00    2.799502e+00
  9.354869e+00    2.783946e+00
  9.465998e+00    2.711038e+00
  9.577127e+00    2.810019e+00
  9.688256e+00    2.767412e+00
  9.799385e+00    2.714335e+00
  9.910514e+00    2.711556e+00
  1.002164e+01    2.638730e+00
  1.013277e+01    2.649674e+00
  1.024390e+01    2.618413e+00
  1.035503e+01    2.651846e+00
  1.046616e+01    2.578294e+00
  1.057729e+01    2.601097e+00
  1.068842e+01    2.549946e+00
  1.079955e+01    2.507746e+00
  1.091068e+01    2.520027e+00
  1.102180e+01    2.495556e+00
  1.113293e+01    2.498890e+00
  1.124406e+01    2.382830e+00
  1.135519e+01    2.461069e+00
  1.146632e+01    2.459938e+00
  1.157745e+01    2.356595e+00
  1.168858e+01    2.402714e+00
  1.179971e+01    2.365305e+00
  1.191084e+01    2.323112e+00
  1.202197e+01    2.338766e+00
  1.213309e+01    2.321674e+00
  1.224422e+01    2.325356e+00
  1.235535e+01    2.316289e+00
  1.246648e+01    2.327332e+00
  1.257761e+01    2.382630e+00
  1.268874e+01    2.442719e+00
  1.279987e+01    2.710556e+00
  1.291100e+01    3.271573e+00
  1.302213e+01    6.011292e+00
  1.313326e+01    1.498036e+01
  1.324438e+01    1.399861e+01
  1.335551e+01    4.880559e+00
  1.346664e+01    3.036315e+00
  1.357777e+01    2.515189e+00
  1.368890e+01    2.315545e+00
  1.380003e+01    2.175060e+00
  1.391116e+01    2.117419e+00
  1.402229e+01    2.095179e+00
  1.413342e+01    1.996197e+00
  1.424455e+01    1.988138e+00
  1.435568e+01    1.956716e+00
  1.446680e+01    1.932116e+00
  1.457793e+01    1.896955e+00
  1.468906e+01    1.928657e+00
  1.480019e+01    1.893320e+00
  1.491132e+01    1.972794e+00
  1.502245e+01    2.196807e+00
  1.513358e+01    3.368318e+00
  1.524471e+01    5.909634e+00
  1.535584e+01    4.358577e+00
  1.546697e+01    2.377605e+00
  1.557809e+01    1.933490e+00
  1.568922e+01    1.740202e+00
  1.580035e+01    1.674489e+00
  1.591148e+01    1.647017e+00
  1.602261e+01    1.579783e+00
  1.613374e+01    1.582185e+00
  1.624487e+01    1.579148e+00
  1.635600e+01    1.579432e+00
  1.646713e+01    1.536666e+00
  1.657826e+01    1.523716e+00
  1.668938e+01    1.461096e+00
  1.680051e+01    1.463068e+00
  1.691164e+01    1.458902e+00
  1.702277e+01    1.399680e+00
  1.713390e+01    1.419094e+00
  1.724503e+01    1.410053e+00
  1.735616e+01    1.409590e+00
  1.746729e+01    1.384289e+00
  1.757842e+01    1.334313e+00
  1.768955e+01    1.344630e+00
  1.780067e+01    1.318137e+00
  1.791180e+01    1.328835e+00
  1.802293e+01    1.294280e+00
  1.813406e+01    1.324268e+00
  1.824519e+01    1.298247e+00
  1.835632e+01    1.272232e+00
  1.846745e+01    1.268008e+00
  1.857858e+01    1.222800e+00
  1.868971e+01    1.241554e+00
  1.880084e+01    1.232646e+00
  1.891196e+01    1.185894e+00
  1.902309e+01    1.202696e+00
  1.913422e+01    1.209573e+00
  1.924535e+01    1.211059e+00
  1.935648e+01    1.192134e+00
  1.946761e+01    1.140985e+00
  1.957874e+01    1.165642e+00
  1.968987e+01    1.137836e+00
  1.980100e+01    1.138072e+00
  1.991213e+01    1.140512e+00
  2.002325e+01    1.140677e+00
  2.013438e+01    1.110959e+00
  2.024551e+01    1.077763e+00
  2.035664e+01    1.086253e+00
  2.046777e+01    1.073899e+00
  2.057890e+01    1.120020e+00
  2.069003e+01    1.072566e+00
  2.080116e+01    1.079217e+00
  2.091229e+01    1.068050e+00
  2.102342e+01    1.093668e+00
  2.113455e+01    1.083910e+00
  2.124567e+01    1.092748e+00
  2.135680e+01    1.166232e+00
  2.146793e+01    1.212467e+00
  2.157906e+01    1.444213e+00
  2.169019e+01    2.215137e+00
  2.180132e+01    5.196713e+00
  2.191245e+01    1.023621e+01
  2.202358e+01    4.858076e+00
  2.213471e+01    2.066433e+00
  2.224584e+01    1.376312e+00
  2.235696e+01    1.176418e+00
  2.246809e+01    1.046183e+00
  2.257922e+01    1.009535e+00
  2.269035e+01    9.749860e-01
  2.280148e+01    9.398750e-01
  2.291261e+01    9.289063e-01
  2.302374e+01    9.201441e-01
  2.313487e+01    8.684920e-01
  2.324600e+01    8.701335e-01
  2.335713e+01    8.691826e-01
  2.346825e+01    8.577443e-01
  2.357938e+01    8.431064e-01
  2.369051e+01    8.288181e-01
  2.380164e+01    8.180586e-01
  2.391277e+01    8.018066e-01
  2.402390e+01    7.850376e-01
  2.413503e+01    8.085505e-01
  2.424616e+01    7.955440e-01
  2.435729e+01    7.756026e-01
  2.446842e+01    7.830132e-01
  2.457954e+01    8.011752e-01
  2.469067e+01    7.821925e-01
  2.480180e+01    7.879499e-01
  2.491293e+01    8.167263e-01
  2.502406e+01    8.053897e-01
  2.513519e+01    8.256657e-01
  2.524632e+01    8.419609e-01
  2.535745e+01    8.913679e-01
  2.546858e+01    9.510847e-01
  2.557971e+01    1.074089e+00
  2.569083e+01    1.354865e+00
  2.580196e+01    2.432519e+00
  2.591309e+01    5.993477e+00
  2.602422e+01    7.683159e+00
  2.613535e+01    2.884739e+00
  2.624648e+01    1.502847e+00
  2.635761e+01    1.115207e+00
  2.646874e+01    9.830602e-01
  2.657987e+01    9.483142e-01
  2.669100e+01    9.101309e-01
  2.680212e+01    9.038780e-01
  2.691325e+01    9.388375e-01
  2.702438e+01    1.038225e+00
  2.713551e+01    1.531868e+00
  2.724664e+01    2.470033e+00
  2.735777e+01    1.517972e+00
  2.746890e+01    1.053743e+00
  2.758003e+01    8.958257e-01
  2.769116e+01    8.314877e-01
  2.780229e+01    8.252550e-01
  2.791342e+01    8.123099e-01
  2.802454e+01    8.108640e-01
  2.813567e+01    7.853050e-01
  2.824680e+01    7.644342e-01
  2.835793e+01    7.717567e-01
  2.846906e+01    7.576345e-01
  2.858019e+01    7.579252e-01
  2.869132e+01    7.877712e-01
  2.880245e+01    7.630773e-01
  2.891358e+01    7.585746e-01
  2.902471e+01    7.426064e-01
  2.913583e+01    7.320265e-01
  2.924696e+01    7.509196e-01
  2.935809e+01    7.271866e-01
  2.946922e+01    7.430502e-01
  2.958035e+01    7.424191e-01
  2.969148e+01    7.367163e-01
  2.980261e+01    7.262411e-01
  2.991374e+01    7.281557e-01
  3.002487e+01    7.433613e-01
  3.013600e+01    7.316042e-01
  3.024712e+01    7.318526e-01
  3.035825e+01    7.172015e-01
  3.046938e+01    7.196761e-01
  3.058051e+01    7.113725e-01
  3.069164e+01    7.152956e-01
  3.080277e+01    7.188564e-01
  3.091390e+01    6.986501e-01
  3.102503e+01    7.026082e-01
  3.113616e+01    7.211798e-01
  3.124729e+01    7.296998e-01
  3.135841e+01    7.460588e-01
  3.146954e+01    7.561489e-01
  3.158067e+01    8.090894e-01
  3.169180e+01    8.943287e-01
  3.180293e+01    1.275655e+00
  3.191406e+01    2.314837e+00
  3.202519e+01    1.785458e+00
  3.213632e+01    1.004162e+00
  3.224745e+01    8.247851e-01
  3.235858e+01    7.717915e-01
  3.246970e+01    7.445564e-01
  3.254908e+01    7.344250e-01