File: XRD/Activation ramp/2024-07-27_002_Ru-CGO-ex_Activtation_ramp_000002_data_000073.dat
# == pyFAI calibration ==
# Distance Sample to Detector: 0.4 m
# PONI: 9.750e-02, 1.135e-01 m
# Rotations: -0.000175 0.000000 -0.000000 rad
#
# == Fit2d calibration ==
# Distance Sample-beamCenter: 400.000 mm
# Center: x=1514.000, y=1300.000 pix
# Tilt: 0.010 deg  TiltPlanRot: 0.010 deg
#
# Detector Detector	 Spline= None	 PixelSize= 7.500e-05, 7.500e-05 m
#    Detector has a mask: False
#    Detector has a dark current: False
#    detector has a flat field: False
#
# Wavelength: 6.888e-11 m
# Mask applied: user provided
# Dark current applied: False
# Flat field applied: False
# Polarization factor: 0.99
# Normalization factor: 1.0
# --> /home/myspot/data/2024_07_Rosario/Ru-CGO-ex/2024-07-27_002_Ru-CGO-ex_Activtation_ramp_000002_data_000073.dat
#       q_nm^-1             I
  2.003187e-02    7.712624e-02
  1.311609e-01    4.974267e-02
  2.422899e-01    6.598472e-03
  3.534189e-01    4.696668e-02
  4.645479e-01    2.133592e-02
  5.756770e-01    4.634756e-02
  6.868060e-01    2.147657e-02
  7.979350e-01    1.531399e-01
  9.090640e-01    5.671011e-01
  1.020193e+00    1.082542e+00
  1.131322e+00    1.420127e+00
  1.242451e+00    2.246440e+00
  1.353580e+00    2.580642e+00
  1.464709e+00    2.724345e+00
  1.575838e+00    3.029783e+00
  1.686967e+00    2.919262e+00
  1.798096e+00    2.835310e+00
  1.909225e+00    2.732125e+00
  2.020354e+00    2.860824e+00
  2.131483e+00    2.700737e+00
  2.242612e+00    2.691120e+00
  2.353741e+00    2.776547e+00
  2.464870e+00    2.783950e+00
  2.575999e+00    2.806583e+00
  2.687128e+00    2.803227e+00
  2.798257e+00    2.905867e+00
  2.909386e+00    3.023646e+00
  3.020515e+00    2.892060e+00
  3.131644e+00    2.913993e+00
  3.242773e+00    2.963472e+00
  3.353902e+00    2.830295e+00
  3.465031e+00    3.013490e+00
  3.576160e+00    2.921527e+00
  3.687289e+00    2.943957e+00
  3.798418e+00    2.968122e+00
  3.909547e+00    2.909780e+00
  4.020676e+00    3.054834e+00
  4.131806e+00    2.955917e+00
  4.242935e+00    3.014827e+00
  4.354064e+00    3.022789e+00
  4.465193e+00    3.016023e+00
  4.576322e+00    3.020514e+00
  4.687451e+00    3.144597e+00
  4.798580e+00    3.067021e+00
  4.909709e+00    3.106867e+00
  5.020838e+00    3.112243e+00
  5.131967e+00    3.087185e+00
  5.243096e+00    3.154263e+00
  5.354225e+00    3.085781e+00
  5.465354e+00    3.097717e+00
  5.576483e+00    3.062198e+00
  5.687612e+00    3.067286e+00
  5.798741e+00    3.010437e+00
  5.909870e+00    2.986849e+00
  6.020999e+00    2.953156e+00
  6.132128e+00    3.106819e+00
  6.243257e+00    3.053015e+00
  6.354386e+00    3.018211e+00
  6.465515e+00    3.035336e+00
  6.576644e+00    3.020895e+00
  6.687773e+00    3.105328e+00
  6.798902e+00    2.971950e+00
  6.910031e+00    3.055054e+00
  7.021160e+00    2.949407e+00
  7.132289e+00    2.986480e+00
  7.243418e+00    3.016787e+00
  7.354547e+00    3.003492e+00
  7.465676e+00    3.016876e+00
  7.576805e+00    3.058602e+00
  7.687934e+00    2.923973e+00
  7.799063e+00    2.946731e+00
  7.910192e+00    2.922854e+00
  8.021321e+00    2.881725e+00
  8.132450e+00    2.984732e+00
  8.243579e+00    3.004097e+00
  8.354708e+00    2.892807e+00
  8.465837e+00    2.921616e+00
  8.576966e+00    2.849821e+00
  8.688095e+00    2.845184e+00
  8.799224e+00    2.820443e+00
  8.910353e+00    2.851720e+00
  9.021482e+00    2.795170e+00
  9.132611e+00    2.787274e+00
  9.243740e+00    2.786637e+00
  9.354869e+00    2.792657e+00
  9.465998e+00    2.768425e+00
  9.577127e+00    2.805376e+00
  9.688256e+00    2.729552e+00
  9.799385e+00    2.689852e+00
  9.910514e+00    2.664899e+00
  1.002164e+01    2.614110e+00
  1.013277e+01    2.671233e+00
  1.024390e+01    2.649372e+00
  1.035503e+01    2.629351e+00
  1.046616e+01    2.643555e+00
  1.057729e+01    2.585434e+00
  1.068842e+01    2.518305e+00
  1.079955e+01    2.518753e+00
  1.091068e+01    2.526304e+00
  1.102180e+01    2.467981e+00
  1.113293e+01    2.463211e+00
  1.124406e+01    2.444426e+00
  1.135519e+01    2.501211e+00
  1.146632e+01    2.366366e+00
  1.157745e+01    2.376003e+00
  1.168858e+01    2.334965e+00
  1.179971e+01    2.306188e+00
  1.191084e+01    2.364945e+00
  1.202197e+01    2.308326e+00
  1.213309e+01    2.375168e+00
  1.224422e+01    2.360793e+00
  1.235535e+01    2.290472e+00
  1.246648e+01    2.385333e+00
  1.257761e+01    2.380943e+00
  1.268874e+01    2.462836e+00
  1.279987e+01    2.625858e+00
  1.291100e+01    3.325376e+00
  1.302213e+01    5.980543e+00
  1.313326e+01    1.503632e+01
  1.324438e+01    1.398513e+01
  1.335551e+01    4.855289e+00
  1.346664e+01    3.040538e+00
  1.357777e+01    2.485948e+00
  1.368890e+01    2.295946e+00
  1.380003e+01    2.167656e+00
  1.391116e+01    2.080846e+00
  1.402229e+01    2.045486e+00
  1.413342e+01    1.996583e+00
  1.424455e+01    1.975372e+00
  1.435568e+01    1.945803e+00
  1.446680e+01    1.920433e+00
  1.457793e+01    1.908780e+00
  1.468906e+01    1.900267e+00
  1.480019e+01    1.913592e+00
  1.491132e+01    1.960402e+00
  1.502245e+01    2.220476e+00
  1.513358e+01    3.326006e+00
  1.524471e+01    5.901684e+00
  1.535584e+01    4.475188e+00
  1.546697e+01    2.359600e+00
  1.557809e+01    1.970378e+00
  1.568922e+01    1.810157e+00
  1.580035e+01    1.677480e+00
  1.591148e+01    1.660899e+00
  1.602261e+01    1.611849e+00
  1.613374e+01    1.588528e+00
  1.624487e+01    1.542597e+00
  1.635600e+01    1.549926e+00
  1.646713e+01    1.527928e+00
  1.657826e+01    1.499361e+00
  1.668938e+01    1.497188e+00
  1.680051e+01    1.489647e+00
  1.691164e+01    1.460016e+00
  1.702277e+01    1.472546e+00
  1.713390e+01    1.418991e+00
  1.724503e+01    1.427649e+00
  1.735616e+01    1.414983e+00
  1.746729e+01    1.375994e+00
  1.757842e+01    1.368954e+00
  1.768955e+01    1.343193e+00
  1.780067e+01    1.311912e+00
  1.791180e+01    1.353125e+00
  1.802293e+01    1.313045e+00
  1.813406e+01    1.303551e+00
  1.824519e+01    1.264046e+00
  1.835632e+01    1.262047e+00
  1.846745e+01    1.278644e+00
  1.857858e+01    1.240030e+00
  1.868971e+01    1.232175e+00
  1.880084e+01    1.236434e+00
  1.891196e+01    1.199737e+00
  1.902309e+01    1.197531e+00
  1.913422e+01    1.188688e+00
  1.924535e+01    1.186145e+00
  1.935648e+01    1.171080e+00
  1.946761e+01    1.214148e+00
  1.957874e+01    1.182580e+00
  1.968987e+01    1.126886e+00
  1.980100e+01    1.121987e+00
  1.991213e+01    1.156281e+00
  2.002325e+01    1.125388e+00
  2.013438e+01    1.103609e+00
  2.024551e+01    1.082609e+00
  2.035664e+01    1.122703e+00
  2.046777e+01    1.093921e+00
  2.057890e+01    1.077230e+00
  2.069003e+01    1.086218e+00
  2.080116e+01    1.111423e+00
  2.091229e+01    1.071567e+00
  2.102342e+01    1.103522e+00
  2.113455e+01    1.096125e+00
  2.124567e+01    1.091756e+00
  2.135680e+01    1.140290e+00
  2.146793e+01    1.248356e+00
  2.157906e+01    1.442616e+00
  2.169019e+01    2.212627e+00
  2.180132e+01    5.208411e+00
  2.191245e+01    1.019451e+01
  2.202358e+01    4.824274e+00
  2.213471e+01    2.066418e+00
  2.224584e+01    1.352954e+00
  2.235696e+01    1.172733e+00
  2.246809e+01    1.051612e+00
  2.257922e+01    9.908851e-01
  2.269035e+01    9.947289e-01
  2.280148e+01    9.384988e-01
  2.291261e+01    9.184132e-01
  2.302374e+01    9.176626e-01
  2.313487e+01    8.910665e-01
  2.324600e+01    8.795414e-01
  2.335713e+01    8.376708e-01
  2.346825e+01    8.507469e-01
  2.357938e+01    8.276488e-01
  2.369051e+01    8.225479e-01
  2.380164e+01    8.195611e-01
  2.391277e+01    7.893898e-01
  2.402390e+01    8.036527e-01
  2.413503e+01    7.870378e-01
  2.424616e+01    7.966866e-01
  2.435729e+01    7.856124e-01
  2.446842e+01    7.930555e-01
  2.457954e+01    8.025328e-01
  2.469067e+01    7.867687e-01
  2.480180e+01    8.052381e-01
  2.491293e+01    8.116210e-01
  2.502406e+01    8.246580e-01
  2.513519e+01    8.227319e-01
  2.524632e+01    8.643494e-01
  2.535745e+01    8.963800e-01
  2.546858e+01    9.279966e-01
  2.557971e+01    1.058636e+00
  2.569083e+01    1.359326e+00
  2.580196e+01    2.366108e+00
  2.591309e+01    6.000513e+00
  2.602422e+01    7.729991e+00
  2.613535e+01    2.825866e+00
  2.624648e+01    1.505692e+00
  2.635761e+01    1.103686e+00
  2.646874e+01    9.905303e-01
  2.657987e+01    9.243050e-01
  2.669100e+01    9.045898e-01
  2.680212e+01    8.949343e-01
  2.691325e+01    9.379479e-01
  2.702438e+01    1.037063e+00
  2.713551e+01    1.583986e+00
  2.724664e+01    2.434602e+00
  2.735777e+01    1.535588e+00
  2.746890e+01    1.020627e+00
  2.758003e+01    8.953993e-01
  2.769116e+01    8.224419e-01
  2.780229e+01    8.323072e-01
  2.791342e+01    8.048704e-01
  2.802454e+01    8.075691e-01
  2.813567e+01    7.938957e-01
  2.824680e+01    7.621279e-01
  2.835793e+01    7.809811e-01
  2.846906e+01    7.721990e-01
  2.858019e+01    7.473506e-01
  2.869132e+01    7.708234e-01
  2.880245e+01    7.302490e-01
  2.891358e+01    7.583364e-01
  2.902471e+01    7.439915e-01
  2.913583e+01    7.605442e-01
  2.924696e+01    7.269093e-01
  2.935809e+01    7.414517e-01
  2.946922e+01    7.149571e-01
  2.958035e+01    7.233921e-01
  2.969148e+01    7.128762e-01
  2.980261e+01    7.327375e-01
  2.991374e+01    7.086344e-01
  3.002487e+01    7.392588e-01
  3.013600e+01    7.338238e-01
  3.024712e+01    7.105615e-01
  3.035825e+01    7.157204e-01
  3.046938e+01    7.082662e-01
  3.058051e+01    6.980090e-01
  3.069164e+01    7.157873e-01
  3.080277e+01    7.113412e-01
  3.091390e+01    7.340543e-01
  3.102503e+01    7.064617e-01
  3.113616e+01    6.975097e-01
  3.124729e+01    7.351136e-01
  3.135841e+01    7.117640e-01
  3.146954e+01    7.659926e-01
  3.158067e+01    8.065924e-01
  3.169180e+01    8.884996e-01
  3.180293e+01    1.254869e+00
  3.191406e+01    2.322714e+00
  3.202519e+01    1.737867e+00
  3.213632e+01    9.837767e-01
  3.224745e+01    8.380618e-01
  3.235858e+01    7.776092e-01
  3.246970e+01    7.229752e-01
  3.254908e+01    7.419237e-01