File: XRD/Activation ramp/2024-07-27_002_Ru-CGO-ex_Activtation_ramp_000002_data_000121.dat
# == pyFAI calibration ==
# Distance Sample to Detector: 0.4 m
# PONI: 9.750e-02, 1.135e-01 m
# Rotations: -0.000175 0.000000 -0.000000 rad
#
# == Fit2d calibration ==
# Distance Sample-beamCenter: 400.000 mm
# Center: x=1514.000, y=1300.000 pix
# Tilt: 0.010 deg  TiltPlanRot: 0.010 deg
#
# Detector Detector	 Spline= None	 PixelSize= 7.500e-05, 7.500e-05 m
#    Detector has a mask: False
#    Detector has a dark current: False
#    detector has a flat field: False
#
# Wavelength: 6.888e-11 m
# Mask applied: user provided
# Dark current applied: False
# Flat field applied: False
# Polarization factor: 0.99
# Normalization factor: 1.0
# --> /home/myspot/data/2024_07_Rosario/Ru-CGO-ex/2024-07-27_002_Ru-CGO-ex_Activtation_ramp_000002_data_000121.dat
#       q_nm^-1             I
  2.003187e-02    7.712225e-02
  1.311609e-01    1.873547e-02
  2.422899e-01    5.598680e-02
  3.534189e-01    1.605240e-02
  4.645479e-01    3.477916e-02
  5.756770e-01    2.710917e-02
  6.868060e-01    9.486304e-03
  7.979350e-01    1.249009e-01
  9.090640e-01    4.701260e-01
  1.020193e+00    1.100796e+00
  1.131322e+00    1.470908e+00
  1.242451e+00    2.135358e+00
  1.353580e+00    2.297046e+00
  1.464709e+00    2.756980e+00
  1.575838e+00    2.965584e+00
  1.686967e+00    2.796504e+00
  1.798096e+00    2.798650e+00
  1.909225e+00    2.631936e+00
  2.020354e+00    2.662219e+00
  2.131483e+00    2.694636e+00
  2.242612e+00    2.711970e+00
  2.353741e+00    2.631395e+00
  2.464870e+00    2.727289e+00
  2.575999e+00    2.778725e+00
  2.687128e+00    2.697508e+00
  2.798257e+00    2.794657e+00
  2.909386e+00    2.850738e+00
  3.020515e+00    2.849541e+00
  3.131644e+00    2.808679e+00
  3.242773e+00    2.877300e+00
  3.353902e+00    2.876679e+00
  3.465031e+00    2.855455e+00
  3.576160e+00    2.958071e+00
  3.687289e+00    2.914078e+00
  3.798418e+00    2.985327e+00
  3.909547e+00    3.014415e+00
  4.020676e+00    2.929599e+00
  4.131806e+00    2.990026e+00
  4.242935e+00    3.008923e+00
  4.354064e+00    2.953728e+00
  4.465193e+00    3.027535e+00
  4.576322e+00    3.092894e+00
  4.687451e+00    3.038047e+00
  4.798580e+00    2.953385e+00
  4.909709e+00    3.152542e+00
  5.020838e+00    3.115208e+00
  5.131967e+00    3.040595e+00
  5.243096e+00    3.029493e+00
  5.354225e+00    3.089525e+00
  5.465354e+00    3.125974e+00
  5.576483e+00    2.973369e+00
  5.687612e+00    2.955210e+00
  5.798741e+00    2.971403e+00
  5.909870e+00    2.930828e+00
  6.020999e+00    2.935035e+00
  6.132128e+00    3.082612e+00
  6.243257e+00    2.949180e+00
  6.354386e+00    2.938775e+00
  6.465515e+00    2.988522e+00
  6.576644e+00    2.973931e+00
  6.687773e+00    3.047411e+00
  6.798902e+00    2.929925e+00
  6.910031e+00    2.929893e+00
  7.021160e+00    3.008695e+00
  7.132289e+00    2.969990e+00
  7.243418e+00    2.981850e+00
  7.354547e+00    2.918982e+00
  7.465676e+00    2.879310e+00
  7.576805e+00    2.940285e+00
  7.687934e+00    2.919038e+00
  7.799063e+00    2.895938e+00
  7.910192e+00    2.866442e+00
  8.021321e+00    2.888134e+00
  8.132450e+00    2.904627e+00
  8.243579e+00    2.866341e+00
  8.354708e+00    2.836667e+00
  8.465837e+00    2.839272e+00
  8.576966e+00    2.842806e+00
  8.688095e+00    2.743848e+00
  8.799224e+00    2.775306e+00
  8.910353e+00    2.777430e+00
  9.021482e+00    2.836205e+00
  9.132611e+00    2.769266e+00
  9.243740e+00    2.762473e+00
  9.354869e+00    2.710102e+00
  9.465998e+00    2.759477e+00
  9.577127e+00    2.717331e+00
  9.688256e+00    2.699013e+00
  9.799385e+00    2.670666e+00
  9.910514e+00    2.679959e+00
  1.002164e+01    2.606293e+00
  1.013277e+01    2.555189e+00
  1.024390e+01    2.543357e+00
  1.035503e+01    2.629076e+00
  1.046616e+01    2.560340e+00
  1.057729e+01    2.523043e+00
  1.068842e+01    2.502410e+00
  1.079955e+01    2.536096e+00
  1.091068e+01    2.464115e+00
  1.102180e+01    2.471787e+00
  1.113293e+01    2.439256e+00
  1.124406e+01    2.470010e+00
  1.135519e+01    2.421232e+00
  1.146632e+01    2.373103e+00
  1.157745e+01    2.355184e+00
  1.168858e+01    2.311308e+00
  1.179971e+01    2.296488e+00
  1.191084e+01    2.291960e+00
  1.202197e+01    2.273987e+00
  1.213309e+01    2.264180e+00
  1.224422e+01    2.241018e+00
  1.235535e+01    2.311670e+00
  1.246648e+01    2.299968e+00
  1.257761e+01    2.328228e+00
  1.268874e+01    2.421011e+00
  1.279987e+01    2.648116e+00
  1.291100e+01    3.251357e+00
  1.302213e+01    6.024441e+00
  1.313326e+01    1.447615e+01
  1.324438e+01    1.213835e+01
  1.335551e+01    4.421078e+00
  1.346664e+01    2.863070e+00
  1.357777e+01    2.370693e+00
  1.368890e+01    2.212132e+00
  1.380003e+01    2.154517e+00
  1.391116e+01    2.080182e+00
  1.402229e+01    2.037304e+00
  1.413342e+01    1.965551e+00
  1.424455e+01    1.926009e+00
  1.435568e+01    1.937879e+00
  1.446680e+01    1.890886e+00
  1.457793e+01    1.871343e+00
  1.468906e+01    1.901061e+00
  1.480019e+01    1.878198e+00
  1.491132e+01    1.960310e+00
  1.502245e+01    2.188634e+00
  1.513358e+01    3.355290e+00
  1.524471e+01    5.670287e+00
  1.535584e+01    3.875157e+00
  1.546697e+01    2.234281e+00
  1.557809e+01    1.857731e+00
  1.568922e+01    1.718951e+00
  1.580035e+01    1.679133e+00
  1.591148e+01    1.622873e+00
  1.602261e+01    1.603623e+00
  1.613374e+01    1.580200e+00
  1.624487e+01    1.541179e+00
  1.635600e+01    1.482713e+00
  1.646713e+01    1.499950e+00
  1.657826e+01    1.480946e+00
  1.668938e+01    1.510851e+00
  1.680051e+01    1.412835e+00
  1.691164e+01    1.466159e+00
  1.702277e+01    1.402701e+00
  1.713390e+01    1.414643e+00
  1.724503e+01    1.371019e+00
  1.735616e+01    1.365596e+00
  1.746729e+01    1.353951e+00
  1.757842e+01    1.335154e+00
  1.768955e+01    1.292290e+00
  1.780067e+01    1.327000e+00
  1.791180e+01    1.282956e+00
  1.802293e+01    1.286275e+00
  1.813406e+01    1.245319e+00
  1.824519e+01    1.258142e+00
  1.835632e+01    1.241878e+00
  1.846745e+01    1.203439e+00
  1.857858e+01    1.210952e+00
  1.868971e+01    1.215394e+00
  1.880084e+01    1.188265e+00
  1.891196e+01    1.218041e+00
  1.902309e+01    1.157293e+00
  1.913422e+01    1.174761e+00
  1.924535e+01    1.146443e+00
  1.935648e+01    1.172907e+00
  1.946761e+01    1.118669e+00
  1.957874e+01    1.134130e+00
  1.968987e+01    1.127889e+00
  1.980100e+01    1.130185e+00
  1.991213e+01    1.100890e+00
  2.002325e+01    1.093143e+00
  2.013438e+01    1.123561e+00
  2.024551e+01    1.084810e+00
  2.035664e+01    1.083641e+00
  2.046777e+01    1.070720e+00
  2.057890e+01    1.050549e+00
  2.069003e+01    1.062958e+00
  2.080116e+01    1.066408e+00
  2.091229e+01    1.040091e+00
  2.102342e+01    1.059920e+00
  2.113455e+01    1.064839e+00
  2.124567e+01    1.073834e+00
  2.135680e+01    1.129601e+00
  2.146793e+01    1.218768e+00
  2.157906e+01    1.422854e+00
  2.169019e+01    2.260646e+00
  2.180132e+01    5.321603e+00
  2.191245e+01    9.479151e+00
  2.202358e+01    4.077848e+00
  2.213471e+01    1.843433e+00
  2.224584e+01    1.301054e+00
  2.235696e+01    1.124244e+00
  2.246809e+01    1.034439e+00
  2.257922e+01    9.964113e-01
  2.269035e+01    9.776716e-01
  2.280148e+01    9.241171e-01
  2.291261e+01    8.978648e-01
  2.302374e+01    8.747829e-01
  2.313487e+01    8.889619e-01
  2.324600e+01    8.312169e-01
  2.335713e+01    8.490097e-01
  2.346825e+01    8.391231e-01
  2.357938e+01    8.205580e-01
  2.369051e+01    8.168843e-01
  2.380164e+01    7.879381e-01
  2.391277e+01    7.909284e-01
  2.402390e+01    7.783886e-01
  2.413503e+01    7.571573e-01
  2.424616e+01    7.828172e-01
  2.435729e+01    7.869229e-01
  2.446842e+01    7.778102e-01
  2.457954e+01    7.817982e-01
  2.469067e+01    7.927702e-01
  2.480180e+01    7.991718e-01
  2.491293e+01    7.970408e-01
  2.502406e+01    7.997068e-01
  2.513519e+01    7.847651e-01
  2.524632e+01    8.434511e-01
  2.535745e+01    8.641828e-01
  2.546858e+01    9.159849e-01
  2.557971e+01    1.057796e+00
  2.569083e+01    1.366853e+00
  2.580196e+01    2.491864e+00
  2.591309e+01    6.156093e+00
  2.602422e+01    6.508640e+00
  2.613535e+01    2.371090e+00
  2.624648e+01    1.374727e+00
  2.635761e+01    1.074443e+00
  2.646874e+01    9.442146e-01
  2.657987e+01    8.899050e-01
  2.669100e+01    8.940118e-01
  2.680212e+01    8.600366e-01
  2.691325e+01    9.066228e-01
  2.702438e+01    1.018157e+00
  2.713551e+01    1.546469e+00
  2.724664e+01    2.305229e+00
  2.735777e+01    1.345610e+00
  2.746890e+01    9.706371e-01
  2.758003e+01    8.702272e-01
  2.769116e+01    8.308301e-01
  2.780229e+01    8.066555e-01
  2.791342e+01    7.969679e-01
  2.802454e+01    7.900779e-01
  2.813567e+01    7.391080e-01
  2.824680e+01    7.425705e-01
  2.835793e+01    7.375526e-01
  2.846906e+01    7.386140e-01
  2.858019e+01    7.209414e-01
  2.869132e+01    7.508361e-01
  2.880245e+01    7.357283e-01
  2.891358e+01    7.260273e-01
  2.902471e+01    7.135952e-01
  2.913583e+01    7.121974e-01
  2.924696e+01    7.189273e-01
  2.935809e+01    7.390740e-01
  2.946922e+01    7.034565e-01
  2.958035e+01    6.795948e-01
  2.969148e+01    6.820937e-01
  2.980261e+01    7.038683e-01
  2.991374e+01    7.160645e-01
  3.002487e+01    7.305614e-01
  3.013600e+01    7.245363e-01
  3.024712e+01    7.028059e-01
  3.035825e+01    7.254137e-01
  3.046938e+01    7.033377e-01
  3.058051e+01    7.190251e-01
  3.069164e+01    6.980544e-01
  3.080277e+01    6.978464e-01
  3.091390e+01    7.140352e-01
  3.102503e+01    7.155709e-01
  3.113616e+01    7.197887e-01
  3.124729e+01    7.348632e-01
  3.135841e+01    7.360737e-01
  3.146954e+01    7.366033e-01
  3.158067e+01    7.885617e-01
  3.169180e+01    9.005697e-01
  3.180293e+01    1.296695e+00
  3.191406e+01    2.256023e+00
  3.202519e+01    1.505062e+00
  3.213632e+01    9.606839e-01
  3.224745e+01    7.843311e-01
  3.235858e+01    7.800439e-01
  3.246970e+01    7.130268e-01
  3.254908e+01    7.108753e-01