File: XRD/Activation ramp/2024-07-27_002_Ru-CGO-ex_Activtation_ramp_000002_data_000052.dat
# == pyFAI calibration ==
# Distance Sample to Detector: 0.4 m
# PONI: 9.750e-02, 1.135e-01 m
# Rotations: -0.000175 0.000000 -0.000000 rad
#
# == Fit2d calibration ==
# Distance Sample-beamCenter: 400.000 mm
# Center: x=1514.000, y=1300.000 pix
# Tilt: 0.010 deg  TiltPlanRot: 0.010 deg
#
# Detector Detector	 Spline= None	 PixelSize= 7.500e-05, 7.500e-05 m
#    Detector has a mask: False
#    Detector has a dark current: False
#    detector has a flat field: False
#
# Wavelength: 6.888e-11 m
# Mask applied: user provided
# Dark current applied: False
# Flat field applied: False
# Polarization factor: 0.99
# Normalization factor: 1.0
# --> /home/myspot/data/2024_07_Rosario/Ru-CGO-ex/2024-07-27_002_Ru-CGO-ex_Activtation_ramp_000002_data_000052.dat
#       q_nm^-1             I
  2.003187e-02    2.226973e-02
  1.311609e-01    7.399958e-02
  2.422899e-01    0.000000e+00
  3.534189e-01    2.021250e-02
  4.645479e-01    4.337886e-02
  5.756770e-01    7.171734e-02
  6.868060e-01    3.193030e-02
  7.979350e-01    1.444460e-01
  9.090640e-01    5.943909e-01
  1.020193e+00    1.164762e+00
  1.131322e+00    1.319186e+00
  1.242451e+00    2.225251e+00
  1.353580e+00    2.662634e+00
  1.464709e+00    2.768455e+00
  1.575838e+00    3.068995e+00
  1.686967e+00    2.817597e+00
  1.798096e+00    2.778569e+00
  1.909225e+00    2.656902e+00
  2.020354e+00    2.702648e+00
  2.131483e+00    2.716979e+00
  2.242612e+00    2.719140e+00
  2.353741e+00    2.657709e+00
  2.464870e+00    2.942066e+00
  2.575999e+00    2.842198e+00
  2.687128e+00    2.685616e+00
  2.798257e+00    2.799879e+00
  2.909386e+00    2.888639e+00
  3.020515e+00    2.848662e+00
  3.131644e+00    2.903364e+00
  3.242773e+00    2.974422e+00
  3.353902e+00    2.965471e+00
  3.465031e+00    2.949947e+00
  3.576160e+00    3.046432e+00
  3.687289e+00    2.915926e+00
  3.798418e+00    2.988967e+00
  3.909547e+00    3.017753e+00
  4.020676e+00    3.085448e+00
  4.131806e+00    3.071767e+00
  4.242935e+00    3.043286e+00
  4.354064e+00    3.103536e+00
  4.465193e+00    3.063529e+00
  4.576322e+00    3.126742e+00
  4.687451e+00    3.135348e+00
  4.798580e+00    3.147519e+00
  4.909709e+00    3.050879e+00
  5.020838e+00    3.029691e+00
  5.131967e+00    3.115787e+00
  5.243096e+00    3.125870e+00
  5.354225e+00    3.117100e+00
  5.465354e+00    3.001575e+00
  5.576483e+00    3.023412e+00
  5.687612e+00    3.054057e+00
  5.798741e+00    3.033365e+00
  5.909870e+00    3.070172e+00
  6.020999e+00    2.939168e+00
  6.132128e+00    3.029772e+00
  6.243257e+00    3.031178e+00
  6.354386e+00    3.005865e+00
  6.465515e+00    3.015887e+00
  6.576644e+00    3.056120e+00
  6.687773e+00    3.007437e+00
  6.798902e+00    2.997176e+00
  6.910031e+00    3.053277e+00
  7.021160e+00    3.120237e+00
  7.132289e+00    2.981832e+00
  7.243418e+00    3.058343e+00
  7.354547e+00    3.015926e+00
  7.465676e+00    2.977565e+00
  7.576805e+00    2.991104e+00
  7.687934e+00    2.912513e+00
  7.799063e+00    2.889841e+00
  7.910192e+00    2.905242e+00
  8.021321e+00    2.903372e+00
  8.132450e+00    2.985658e+00
  8.243579e+00    2.966149e+00
  8.354708e+00    2.915741e+00
  8.465837e+00    2.815044e+00
  8.576966e+00    2.924254e+00
  8.688095e+00    2.889043e+00
  8.799224e+00    2.834740e+00
  8.910353e+00    2.815464e+00
  9.021482e+00    2.804963e+00
  9.132611e+00    2.753837e+00
  9.243740e+00    2.714676e+00
  9.354869e+00    2.753170e+00
  9.465998e+00    2.757443e+00
  9.577127e+00    2.707760e+00
  9.688256e+00    2.723054e+00
  9.799385e+00    2.733903e+00
  9.910514e+00    2.770336e+00
  1.002164e+01    2.656490e+00
  1.013277e+01    2.679325e+00
  1.024390e+01    2.669483e+00
  1.035503e+01    2.640610e+00
  1.046616e+01    2.569071e+00
  1.057729e+01    2.568144e+00
  1.068842e+01    2.514838e+00
  1.079955e+01    2.501272e+00
  1.091068e+01    2.520836e+00
  1.102180e+01    2.494657e+00
  1.113293e+01    2.436850e+00
  1.124406e+01    2.473408e+00
  1.135519e+01    2.454930e+00
  1.146632e+01    2.422567e+00
  1.157745e+01    2.377921e+00
  1.168858e+01    2.360412e+00
  1.179971e+01    2.367950e+00
  1.191084e+01    2.340472e+00
  1.202197e+01    2.353407e+00
  1.213309e+01    2.363253e+00
  1.224422e+01    2.349932e+00
  1.235535e+01    2.308292e+00
  1.246648e+01    2.339612e+00
  1.257761e+01    2.379209e+00
  1.268874e+01    2.444345e+00
  1.279987e+01    2.677755e+00
  1.291100e+01    3.280093e+00
  1.302213e+01    5.962027e+00
  1.313326e+01    1.496670e+01
  1.324438e+01    1.490298e+01
  1.335551e+01    5.157372e+00
  1.346664e+01    3.081307e+00
  1.357777e+01    2.542300e+00
  1.368890e+01    2.302397e+00
  1.380003e+01    2.210331e+00
  1.391116e+01    2.086345e+00
  1.402229e+01    2.039776e+00
  1.413342e+01    2.024234e+00
  1.424455e+01    1.982764e+00
  1.435568e+01    1.971251e+00
  1.446680e+01    1.983357e+00
  1.457793e+01    1.924652e+00
  1.468906e+01    1.941342e+00
  1.480019e+01    1.929372e+00
  1.491132e+01    1.993811e+00
  1.502245e+01    2.202939e+00
  1.513358e+01    3.266150e+00
  1.524471e+01    5.887779e+00
  1.535584e+01    4.608521e+00
  1.546697e+01    2.411634e+00
  1.557809e+01    1.943952e+00
  1.568922e+01    1.813233e+00
  1.580035e+01    1.758200e+00
  1.591148e+01    1.667630e+00
  1.602261e+01    1.644484e+00
  1.613374e+01    1.618128e+00
  1.624487e+01    1.552366e+00
  1.635600e+01    1.537153e+00
  1.646713e+01    1.521134e+00
  1.657826e+01    1.507362e+00
  1.668938e+01    1.508127e+00
  1.680051e+01    1.455784e+00
  1.691164e+01    1.461089e+00
  1.702277e+01    1.438999e+00
  1.713390e+01    1.424065e+00
  1.724503e+01    1.407917e+00
  1.735616e+01    1.386054e+00
  1.746729e+01    1.389640e+00
  1.757842e+01    1.370609e+00
  1.768955e+01    1.343693e+00
  1.780067e+01    1.360770e+00
  1.791180e+01    1.301888e+00
  1.802293e+01    1.334189e+00
  1.813406e+01    1.259881e+00
  1.824519e+01    1.308044e+00
  1.835632e+01    1.266411e+00
  1.846745e+01    1.270984e+00
  1.857858e+01    1.258940e+00
  1.868971e+01    1.224270e+00
  1.880084e+01    1.213708e+00
  1.891196e+01    1.221817e+00
  1.902309e+01    1.223540e+00
  1.913422e+01    1.192375e+00
  1.924535e+01    1.202819e+00
  1.935648e+01    1.151678e+00
  1.946761e+01    1.171072e+00
  1.957874e+01    1.157295e+00
  1.968987e+01    1.164609e+00
  1.980100e+01    1.153417e+00
  1.991213e+01    1.125448e+00
  2.002325e+01    1.116266e+00
  2.013438e+01    1.110774e+00
  2.024551e+01    1.093806e+00
  2.035664e+01    1.120005e+00
  2.046777e+01    1.083812e+00
  2.057890e+01    1.091681e+00
  2.069003e+01    1.065068e+00
  2.080116e+01    1.084032e+00
  2.091229e+01    1.093154e+00
  2.102342e+01    1.061069e+00
  2.113455e+01    1.110978e+00
  2.124567e+01    1.130022e+00
  2.135680e+01    1.158321e+00
  2.146793e+01    1.251297e+00
  2.157906e+01    1.471712e+00
  2.169019e+01    2.135693e+00
  2.180132e+01    5.024740e+00
  2.191245e+01    1.032831e+01
  2.202358e+01    5.377474e+00
  2.213471e+01    2.172859e+00
  2.224584e+01    1.449315e+00
  2.235696e+01    1.189879e+00
  2.246809e+01    1.091998e+00
  2.257922e+01    1.032483e+00
  2.269035e+01    9.714972e-01
  2.280148e+01    9.409301e-01
  2.291261e+01    9.266532e-01
  2.302374e+01    8.988950e-01
  2.313487e+01    8.842710e-01
  2.324600e+01    9.012032e-01
  2.335713e+01    8.584322e-01
  2.346825e+01    8.604471e-01
  2.357938e+01    8.629887e-01
  2.369051e+01    8.425313e-01
  2.380164e+01    7.996258e-01
  2.391277e+01    8.224848e-01
  2.402390e+01    7.820598e-01
  2.413503e+01    7.591377e-01
  2.424616e+01    7.672960e-01
  2.435729e+01    7.799551e-01
  2.446842e+01    7.923080e-01
  2.457954e+01    7.998334e-01
  2.469067e+01    7.968045e-01
  2.480180e+01    8.035243e-01
  2.491293e+01    7.994998e-01
  2.502406e+01    8.195133e-01
  2.513519e+01    8.264816e-01
  2.524632e+01    8.574599e-01
  2.535745e+01    8.940928e-01
  2.546858e+01    9.392489e-01
  2.557971e+01    1.075184e+00
  2.569083e+01    1.382047e+00
  2.580196e+01    2.316364e+00
  2.591309e+01    5.737404e+00
  2.602422e+01    8.340927e+00
  2.613535e+01    3.170630e+00
  2.624648e+01    1.573704e+00
  2.635761e+01    1.136920e+00
  2.646874e+01    9.969534e-01
  2.657987e+01    9.450510e-01
  2.669100e+01    8.908539e-01
  2.680212e+01    8.921126e-01
  2.691325e+01    9.344084e-01
  2.702438e+01    1.031767e+00
  2.713551e+01    1.469661e+00
  2.724664e+01    2.482444e+00
  2.735777e+01    1.615334e+00
  2.746890e+01    1.072154e+00
  2.758003e+01    9.081873e-01
  2.769116e+01    8.594251e-01
  2.780229e+01    8.281245e-01
  2.791342e+01    8.165545e-01
  2.802454e+01    7.966825e-01
  2.813567e+01    7.752743e-01
  2.824680e+01    7.852806e-01
  2.835793e+01    7.745414e-01
  2.846906e+01    7.770670e-01
  2.858019e+01    7.755868e-01
  2.869132e+01    7.532331e-01
  2.880245e+01    7.471518e-01
  2.891358e+01    7.512866e-01
  2.902471e+01    7.441992e-01
  2.913583e+01    7.390879e-01
  2.924696e+01    7.180771e-01
  2.935809e+01    7.560443e-01
  2.946922e+01    7.535898e-01
  2.958035e+01    7.151184e-01
  2.969148e+01    7.231050e-01
  2.980261e+01    7.363762e-01
  2.991374e+01    7.407763e-01
  3.002487e+01    7.590416e-01
  3.013600e+01    7.730782e-01
  3.024712e+01    7.057090e-01
  3.035825e+01    7.252954e-01
  3.046938e+01    7.113476e-01
  3.058051e+01    7.285912e-01
  3.069164e+01    7.148933e-01
  3.080277e+01    7.213399e-01
  3.091390e+01    7.333346e-01
  3.102503e+01    7.209869e-01
  3.113616e+01    7.382736e-01
  3.124729e+01    7.385156e-01
  3.135841e+01    7.374176e-01
  3.146954e+01    7.623853e-01
  3.158067e+01    7.804179e-01
  3.169180e+01    8.783639e-01
  3.180293e+01    1.253006e+00
  3.191406e+01    2.296070e+00
  3.202519e+01    1.909546e+00
  3.213632e+01    1.051817e+00
  3.224745e+01    8.382862e-01
  3.235858e+01    7.710220e-01
  3.246970e+01    7.312773e-01
  3.254908e+01    7.469608e-01