File: XRD/Activation ramp/2024-07-27_002_Ru-CGO-ex_Activtation_ramp_000002_data_000100.dat
# == pyFAI calibration ==
# Distance Sample to Detector: 0.4 m
# PONI: 9.750e-02, 1.135e-01 m
# Rotations: -0.000175 0.000000 -0.000000 rad
#
# == Fit2d calibration ==
# Distance Sample-beamCenter: 400.000 mm
# Center: x=1514.000, y=1300.000 pix
# Tilt: 0.010 deg  TiltPlanRot: 0.010 deg
#
# Detector Detector	 Spline= None	 PixelSize= 7.500e-05, 7.500e-05 m
#    Detector has a mask: False
#    Detector has a dark current: False
#    detector has a flat field: False
#
# Wavelength: 6.888e-11 m
# Mask applied: user provided
# Dark current applied: False
# Flat field applied: False
# Polarization factor: 0.99
# Normalization factor: 1.0
# --> /home/myspot/data/2024_07_Rosario/Ru-CGO-ex/2024-07-27_002_Ru-CGO-ex_Activtation_ramp_000002_data_000100.dat
#       q_nm^-1             I
  2.003187e-02    7.711350e-02
  1.311609e-01    5.590411e-03
  2.422899e-01    5.259097e-02
  3.534189e-01    4.895961e-02
  4.645479e-01    4.847341e-02
  5.756770e-01    2.178422e-02
  6.868060e-01    6.006486e-02
  7.979350e-01    1.417667e-01
  9.090640e-01    6.238786e-01
  1.020193e+00    1.049310e+00
  1.131322e+00    1.454507e+00
  1.242451e+00    2.258445e+00
  1.353580e+00    2.531843e+00
  1.464709e+00    2.743677e+00
  1.575838e+00    2.902918e+00
  1.686967e+00    2.916392e+00
  1.798096e+00    2.840916e+00
  1.909225e+00    2.887417e+00
  2.020354e+00    2.780120e+00
  2.131483e+00    2.661458e+00
  2.242612e+00    2.632288e+00
  2.353741e+00    2.707419e+00
  2.464870e+00    2.678068e+00
  2.575999e+00    2.756123e+00
  2.687128e+00    2.679610e+00
  2.798257e+00    2.695101e+00
  2.909386e+00    2.801601e+00
  3.020515e+00    2.894799e+00
  3.131644e+00    2.858202e+00
  3.242773e+00    2.969410e+00
  3.353902e+00    2.871514e+00
  3.465031e+00    2.877074e+00
  3.576160e+00    2.918820e+00
  3.687289e+00    2.922434e+00
  3.798418e+00    2.961453e+00
  3.909547e+00    3.004442e+00
  4.020676e+00    3.017357e+00
  4.131806e+00    2.977200e+00
  4.242935e+00    3.058435e+00
  4.354064e+00    3.008581e+00
  4.465193e+00    3.072909e+00
  4.576322e+00    3.011215e+00
  4.687451e+00    3.124773e+00
  4.798580e+00    3.022763e+00
  4.909709e+00    3.036563e+00
  5.020838e+00    3.193240e+00
  5.131967e+00    3.106150e+00
  5.243096e+00    3.091228e+00
  5.354225e+00    3.111487e+00
  5.465354e+00    2.945578e+00
  5.576483e+00    3.029130e+00
  5.687612e+00    3.099262e+00
  5.798741e+00    3.029013e+00
  5.909870e+00    2.892938e+00
  6.020999e+00    2.993014e+00
  6.132128e+00    3.008561e+00
  6.243257e+00    2.973145e+00
  6.354386e+00    3.027104e+00
  6.465515e+00    2.970814e+00
  6.576644e+00    2.961055e+00
  6.687773e+00    3.030932e+00
  6.798902e+00    2.978167e+00
  6.910031e+00    2.990342e+00
  7.021160e+00    2.925591e+00
  7.132289e+00    2.931185e+00
  7.243418e+00    2.906762e+00
  7.354547e+00    2.901555e+00
  7.465676e+00    2.959471e+00
  7.576805e+00    2.955422e+00
  7.687934e+00    2.972514e+00
  7.799063e+00    2.938121e+00
  7.910192e+00    2.884740e+00
  8.021321e+00    2.861706e+00
  8.132450e+00    2.936667e+00
  8.243579e+00    2.958796e+00
  8.354708e+00    2.802150e+00
  8.465837e+00    2.764474e+00
  8.576966e+00    2.868542e+00
  8.688095e+00    2.787231e+00
  8.799224e+00    2.856615e+00
  8.910353e+00    2.804646e+00
  9.021482e+00    2.785032e+00
  9.132611e+00    2.769981e+00
  9.243740e+00    2.732580e+00
  9.354869e+00    2.734723e+00
  9.465998e+00    2.703843e+00
  9.577127e+00    2.750675e+00
  9.688256e+00    2.688300e+00
  9.799385e+00    2.693031e+00
  9.910514e+00    2.701913e+00
  1.002164e+01    2.621916e+00
  1.013277e+01    2.638407e+00
  1.024390e+01    2.577723e+00
  1.035503e+01    2.510762e+00
  1.046616e+01    2.593503e+00
  1.057729e+01    2.526045e+00
  1.068842e+01    2.483671e+00
  1.079955e+01    2.477814e+00
  1.091068e+01    2.488093e+00
  1.102180e+01    2.446513e+00
  1.113293e+01    2.477636e+00
  1.124406e+01    2.395491e+00
  1.135519e+01    2.423682e+00
  1.146632e+01    2.437738e+00
  1.157745e+01    2.338971e+00
  1.168858e+01    2.377649e+00
  1.179971e+01    2.305305e+00
  1.191084e+01    2.316711e+00
  1.202197e+01    2.298440e+00
  1.213309e+01    2.308171e+00
  1.224422e+01    2.278294e+00
  1.235535e+01    2.294786e+00
  1.246648e+01    2.328025e+00
  1.257761e+01    2.362645e+00
  1.268874e+01    2.442682e+00
  1.279987e+01    2.625067e+00
  1.291100e+01    3.251885e+00
  1.302213e+01    5.952254e+00
  1.313326e+01    1.474502e+01
  1.324438e+01    1.301338e+01
  1.335551e+01    4.656222e+00
  1.346664e+01    2.864226e+00
  1.357777e+01    2.459582e+00
  1.368890e+01    2.240900e+00
  1.380003e+01    2.146104e+00
  1.391116e+01    2.073934e+00
  1.402229e+01    2.058299e+00
  1.413342e+01    1.988672e+00
  1.424455e+01    1.968924e+00
  1.435568e+01    1.926728e+00
  1.446680e+01    1.940292e+00
  1.457793e+01    1.898175e+00
  1.468906e+01    1.919074e+00
  1.480019e+01    1.867730e+00
  1.491132e+01    1.988793e+00
  1.502245e+01    2.240483e+00
  1.513358e+01    3.380946e+00
  1.524471e+01    5.792547e+00
  1.535584e+01    4.087695e+00
  1.546697e+01    2.305032e+00
  1.557809e+01    1.850949e+00
  1.568922e+01    1.756835e+00
  1.580035e+01    1.675070e+00
  1.591148e+01    1.626763e+00
  1.602261e+01    1.572927e+00
  1.613374e+01    1.588941e+00
  1.624487e+01    1.560389e+00
  1.635600e+01    1.486162e+00
  1.646713e+01    1.512295e+00
  1.657826e+01    1.488255e+00
  1.668938e+01    1.483840e+00
  1.680051e+01    1.449844e+00
  1.691164e+01    1.454641e+00
  1.702277e+01    1.436637e+00
  1.713390e+01    1.433680e+00
  1.724503e+01    1.412089e+00
  1.735616e+01    1.403494e+00
  1.746729e+01    1.371505e+00
  1.757842e+01    1.326630e+00
  1.768955e+01    1.321356e+00
  1.780067e+01    1.320883e+00
  1.791180e+01    1.290875e+00
  1.802293e+01    1.292533e+00
  1.813406e+01    1.264022e+00
  1.824519e+01    1.241331e+00
  1.835632e+01    1.240853e+00
  1.846745e+01    1.242347e+00
  1.857858e+01    1.200162e+00
  1.868971e+01    1.254369e+00
  1.880084e+01    1.208356e+00
  1.891196e+01    1.174306e+00
  1.902309e+01    1.169446e+00
  1.913422e+01    1.185410e+00
  1.924535e+01    1.167567e+00
  1.935648e+01    1.181187e+00
  1.946761e+01    1.176835e+00
  1.957874e+01    1.138508e+00
  1.968987e+01    1.113464e+00
  1.980100e+01    1.125711e+00
  1.991213e+01    1.121023e+00
  2.002325e+01    1.113365e+00
  2.013438e+01    1.110287e+00
  2.024551e+01    1.099423e+00
  2.035664e+01    1.075360e+00
  2.046777e+01    1.082340e+00
  2.057890e+01    1.081929e+00
  2.069003e+01    1.085712e+00
  2.080116e+01    1.086883e+00
  2.091229e+01    1.081634e+00
  2.102342e+01    1.082249e+00
  2.113455e+01    1.071317e+00
  2.124567e+01    1.095985e+00
  2.135680e+01    1.127273e+00
  2.146793e+01    1.218971e+00
  2.157906e+01    1.431495e+00
  2.169019e+01    2.238206e+00
  2.180132e+01    5.298050e+00
  2.191245e+01    9.855760e+00
  2.202358e+01    4.420978e+00
  2.213471e+01    1.935132e+00
  2.224584e+01    1.350668e+00
  2.235696e+01    1.132364e+00
  2.246809e+01    1.044541e+00
  2.257922e+01    9.619763e-01
  2.269035e+01    9.626360e-01
  2.280148e+01    9.257267e-01
  2.291261e+01    8.973482e-01
  2.302374e+01    8.989869e-01
  2.313487e+01    8.840482e-01
  2.324600e+01    8.714848e-01
  2.335713e+01    8.450825e-01
  2.346825e+01    8.475456e-01
  2.357938e+01    8.357828e-01
  2.369051e+01    8.135203e-01
  2.380164e+01    8.166852e-01
  2.391277e+01    8.184634e-01
  2.402390e+01    7.886660e-01
  2.413503e+01    7.834173e-01
  2.424616e+01    7.808276e-01
  2.435729e+01    7.861590e-01
  2.446842e+01    7.522761e-01
  2.457954e+01    8.128509e-01
  2.469067e+01    8.112574e-01
  2.480180e+01    7.919380e-01
  2.491293e+01    7.701962e-01
  2.502406e+01    7.902397e-01
  2.513519e+01    8.032902e-01
  2.524632e+01    8.437898e-01
  2.535745e+01    8.684552e-01
  2.546858e+01    9.321077e-01
  2.557971e+01    1.054564e+00
  2.569083e+01    1.343887e+00
  2.580196e+01    2.459208e+00
  2.591309e+01    6.055744e+00
  2.602422e+01    7.079126e+00
  2.613535e+01    2.583796e+00
  2.624648e+01    1.437501e+00
  2.635761e+01    1.083428e+00
  2.646874e+01    9.693979e-01
  2.657987e+01    9.114327e-01
  2.669100e+01    9.014946e-01
  2.680212e+01    8.890558e-01
  2.691325e+01    9.408076e-01
  2.702438e+01    1.049044e+00
  2.713551e+01    1.561958e+00
  2.724664e+01    2.376476e+00
  2.735777e+01    1.401835e+00
  2.746890e+01    9.790308e-01
  2.758003e+01    8.819464e-01
  2.769116e+01    8.253149e-01
  2.780229e+01    8.279210e-01
  2.791342e+01    7.935400e-01
  2.802454e+01    7.990444e-01
  2.813567e+01    7.747842e-01
  2.824680e+01    7.565113e-01
  2.835793e+01    7.674592e-01
  2.846906e+01    7.658447e-01
  2.858019e+01    7.504741e-01
  2.869132e+01    7.342887e-01
  2.880245e+01    7.408370e-01
  2.891358e+01    7.399054e-01
  2.902471e+01    7.147875e-01
  2.913583e+01    7.338480e-01
  2.924696e+01    7.403051e-01
  2.935809e+01    7.250320e-01
  2.946922e+01    7.199565e-01
  2.958035e+01    7.353483e-01
  2.969148e+01    7.272543e-01
  2.980261e+01    7.251394e-01
  2.991374e+01    7.068910e-01
  3.002487e+01    7.351184e-01
  3.013600e+01    6.927816e-01
  3.024712e+01    7.033333e-01
  3.035825e+01    6.896347e-01
  3.046938e+01    7.006061e-01
  3.058051e+01    6.894380e-01
  3.069164e+01    7.388403e-01
  3.080277e+01    7.091902e-01
  3.091390e+01    7.224995e-01
  3.102503e+01    7.236628e-01
  3.113616e+01    7.102381e-01
  3.124729e+01    7.250184e-01
  3.135841e+01    7.513630e-01
  3.146954e+01    7.622359e-01
  3.158067e+01    7.964180e-01
  3.169180e+01    9.058655e-01
  3.180293e+01    1.296856e+00
  3.191406e+01    2.283222e+00
  3.202519e+01    1.600320e+00
  3.213632e+01    9.714826e-01
  3.224745e+01    8.006388e-01
  3.235858e+01    7.574532e-01
  3.246970e+01    7.416276e-01
  3.254908e+01    7.324141e-01