File: XRD/Activation ramp/2024-07-27_002_Ru-CGO-ex_Activtation_ramp_000002_data_000069.dat
# == pyFAI calibration ==
# Distance Sample to Detector: 0.4 m
# PONI: 9.750e-02, 1.135e-01 m
# Rotations: -0.000175 0.000000 -0.000000 rad
#
# == Fit2d calibration ==
# Distance Sample-beamCenter: 400.000 mm
# Center: x=1514.000, y=1300.000 pix
# Tilt: 0.010 deg  TiltPlanRot: 0.010 deg
#
# Detector Detector	 Spline= None	 PixelSize= 7.500e-05, 7.500e-05 m
#    Detector has a mask: False
#    Detector has a dark current: False
#    detector has a flat field: False
#
# Wavelength: 6.888e-11 m
# Mask applied: user provided
# Dark current applied: False
# Flat field applied: False
# Polarization factor: 0.99
# Normalization factor: 1.0
# --> /home/myspot/data/2024_07_Rosario/Ru-CGO-ex/2024-07-27_002_Ru-CGO-ex_Activtation_ramp_000002_data_000069.dat
#       q_nm^-1             I
  2.003187e-02    0.000000e+00
  1.311609e-01    2.321696e-02
  2.422899e-01    9.660430e-02
  3.534189e-01    1.999048e-02
  4.645479e-01    2.785063e-02
  5.756770e-01    4.827126e-02
  6.868060e-01    2.832879e-02
  7.979350e-01    1.524595e-01
  9.090640e-01    5.774377e-01
  1.020193e+00    1.126899e+00
  1.131322e+00    1.428572e+00
  1.242451e+00    2.285446e+00
  1.353580e+00    2.543376e+00
  1.464709e+00    2.862835e+00
  1.575838e+00    3.142715e+00
  1.686967e+00    2.876748e+00
  1.798096e+00    2.921242e+00
  1.909225e+00    2.723398e+00
  2.020354e+00    2.789843e+00
  2.131483e+00    2.898312e+00
  2.242612e+00    2.762476e+00
  2.353741e+00    2.742847e+00
  2.464870e+00    2.697930e+00
  2.575999e+00    2.824070e+00
  2.687128e+00    2.838756e+00
  2.798257e+00    2.843435e+00
  2.909386e+00    2.818445e+00
  3.020515e+00    2.856220e+00
  3.131644e+00    2.886601e+00
  3.242773e+00    2.990756e+00
  3.353902e+00    2.955864e+00
  3.465031e+00    2.919707e+00
  3.576160e+00    2.995273e+00
  3.687289e+00    2.951914e+00
  3.798418e+00    3.024992e+00
  3.909547e+00    3.046665e+00
  4.020676e+00    2.979421e+00
  4.131806e+00    2.933846e+00
  4.242935e+00    3.028429e+00
  4.354064e+00    3.050889e+00
  4.465193e+00    3.128127e+00
  4.576322e+00    3.020271e+00
  4.687451e+00    3.078653e+00
  4.798580e+00    3.117433e+00
  4.909709e+00    3.120117e+00
  5.020838e+00    3.070142e+00
  5.131967e+00    3.166729e+00
  5.243096e+00    3.094328e+00
  5.354225e+00    3.098708e+00
  5.465354e+00    3.025888e+00
  5.576483e+00    3.073422e+00
  5.687612e+00    3.087821e+00
  5.798741e+00    3.015551e+00
  5.909870e+00    2.988638e+00
  6.020999e+00    3.005217e+00
  6.132128e+00    3.005379e+00
  6.243257e+00    3.108075e+00
  6.354386e+00    2.977699e+00
  6.465515e+00    3.080729e+00
  6.576644e+00    3.012467e+00
  6.687773e+00    3.075629e+00
  6.798902e+00    3.033157e+00
  6.910031e+00    3.051461e+00
  7.021160e+00    3.011675e+00
  7.132289e+00    3.021854e+00
  7.243418e+00    2.974244e+00
  7.354547e+00    2.946888e+00
  7.465676e+00    2.953150e+00
  7.576805e+00    2.937209e+00
  7.687934e+00    2.896313e+00
  7.799063e+00    2.860348e+00
  7.910192e+00    2.970014e+00
  8.021321e+00    2.907968e+00
  8.132450e+00    3.008357e+00
  8.243579e+00    2.915665e+00
  8.354708e+00    2.855152e+00
  8.465837e+00    2.869513e+00
  8.576966e+00    2.862488e+00
  8.688095e+00    2.857224e+00
  8.799224e+00    2.900026e+00
  8.910353e+00    2.816111e+00
  9.021482e+00    2.878017e+00
  9.132611e+00    2.788001e+00
  9.243740e+00    2.758776e+00
  9.354869e+00    2.829027e+00
  9.465998e+00    2.810707e+00
  9.577127e+00    2.729227e+00
  9.688256e+00    2.729281e+00
  9.799385e+00    2.686590e+00
  9.910514e+00    2.639462e+00
  1.002164e+01    2.665695e+00
  1.013277e+01    2.641670e+00
  1.024390e+01    2.634609e+00
  1.035503e+01    2.577497e+00
  1.046616e+01    2.616028e+00
  1.057729e+01    2.601149e+00
  1.068842e+01    2.525774e+00
  1.079955e+01    2.522924e+00
  1.091068e+01    2.564805e+00
  1.102180e+01    2.532309e+00
  1.113293e+01    2.488493e+00
  1.124406e+01    2.435379e+00
  1.135519e+01    2.415898e+00
  1.146632e+01    2.436817e+00
  1.157745e+01    2.397135e+00
  1.168858e+01    2.405529e+00
  1.179971e+01    2.306091e+00
  1.191084e+01    2.306483e+00
  1.202197e+01    2.320776e+00
  1.213309e+01    2.290526e+00
  1.224422e+01    2.337973e+00
  1.235535e+01    2.358974e+00
  1.246648e+01    2.337314e+00
  1.257761e+01    2.397238e+00
  1.268874e+01    2.469983e+00
  1.279987e+01    2.667201e+00
  1.291100e+01    3.276688e+00
  1.302213e+01    6.036282e+00
  1.313326e+01    1.489985e+01
  1.324438e+01    1.417009e+01
  1.335551e+01    4.908480e+00
  1.346664e+01    3.058697e+00
  1.357777e+01    2.506871e+00
  1.368890e+01    2.313457e+00
  1.380003e+01    2.144466e+00
  1.391116e+01    2.105210e+00
  1.402229e+01    2.047400e+00
  1.413342e+01    1.994181e+00
  1.424455e+01    1.908749e+00
  1.435568e+01    1.981586e+00
  1.446680e+01    1.957974e+00
  1.457793e+01    1.936566e+00
  1.468906e+01    1.882693e+00
  1.480019e+01    1.922009e+00
  1.491132e+01    1.975202e+00
  1.502245e+01    2.182956e+00
  1.513358e+01    3.308358e+00
  1.524471e+01    5.900000e+00
  1.535584e+01    4.411243e+00
  1.546697e+01    2.342535e+00
  1.557809e+01    1.883664e+00
  1.568922e+01    1.764651e+00
  1.580035e+01    1.692673e+00
  1.591148e+01    1.628473e+00
  1.602261e+01    1.579197e+00
  1.613374e+01    1.596050e+00
  1.624487e+01    1.564730e+00
  1.635600e+01    1.568371e+00
  1.646713e+01    1.544349e+00
  1.657826e+01    1.493176e+00
  1.668938e+01    1.449640e+00
  1.680051e+01    1.468040e+00
  1.691164e+01    1.448087e+00
  1.702277e+01    1.395048e+00
  1.713390e+01    1.411353e+00
  1.724503e+01    1.374126e+00
  1.735616e+01    1.378953e+00
  1.746729e+01    1.373270e+00
  1.757842e+01    1.345842e+00
  1.768955e+01    1.352924e+00
  1.780067e+01    1.346603e+00
  1.791180e+01    1.329469e+00
  1.802293e+01    1.280663e+00
  1.813406e+01    1.263036e+00
  1.824519e+01    1.264601e+00
  1.835632e+01    1.265582e+00
  1.846745e+01    1.245186e+00
  1.857858e+01    1.240960e+00
  1.868971e+01    1.216096e+00
  1.880084e+01    1.211560e+00
  1.891196e+01    1.197317e+00
  1.902309e+01    1.187105e+00
  1.913422e+01    1.217510e+00
  1.924535e+01    1.210564e+00
  1.935648e+01    1.167596e+00
  1.946761e+01    1.161320e+00
  1.957874e+01    1.159385e+00
  1.968987e+01    1.177929e+00
  1.980100e+01    1.129636e+00
  1.991213e+01    1.109646e+00
  2.002325e+01    1.124756e+00
  2.013438e+01    1.115071e+00
  2.024551e+01    1.111357e+00
  2.035664e+01    1.080354e+00
  2.046777e+01    1.095237e+00
  2.057890e+01    1.075121e+00
  2.069003e+01    1.077664e+00
  2.080116e+01    1.077881e+00
  2.091229e+01    1.100995e+00
  2.102342e+01    1.096898e+00
  2.113455e+01    1.086857e+00
  2.124567e+01    1.116421e+00
  2.135680e+01    1.150487e+00
  2.146793e+01    1.233569e+00
  2.157906e+01    1.479258e+00
  2.169019e+01    2.185189e+00
  2.180132e+01    5.145462e+00
  2.191245e+01    1.016955e+01
  2.202358e+01    5.016458e+00
  2.213471e+01    2.065227e+00
  2.224584e+01    1.394882e+00
  2.235696e+01    1.169852e+00
  2.246809e+01    1.070519e+00
  2.257922e+01    1.004329e+00
  2.269035e+01    9.711640e-01
  2.280148e+01    9.204155e-01
  2.291261e+01    9.032136e-01
  2.302374e+01    8.894345e-01
  2.313487e+01    8.917521e-01
  2.324600e+01    8.751476e-01
  2.335713e+01    8.570523e-01
  2.346825e+01    8.513801e-01
  2.357938e+01    8.469298e-01
  2.369051e+01    8.245579e-01
  2.380164e+01    8.144213e-01
  2.391277e+01    7.922863e-01
  2.402390e+01    8.003816e-01
  2.413503e+01    7.857234e-01
  2.424616e+01    8.156502e-01
  2.435729e+01    7.956606e-01
  2.446842e+01    7.857550e-01
  2.457954e+01    7.984768e-01
  2.469067e+01    7.839965e-01
  2.480180e+01    7.834828e-01
  2.491293e+01    8.103849e-01
  2.502406e+01    7.985978e-01
  2.513519e+01    8.143471e-01
  2.524632e+01    8.620974e-01
  2.535745e+01    8.653158e-01
  2.546858e+01    9.428146e-01
  2.557971e+01    1.045531e+00
  2.569083e+01    1.346817e+00
  2.580196e+01    2.363842e+00
  2.591309e+01    5.950329e+00
  2.602422e+01    7.784167e+00
  2.613535e+01    2.896737e+00
  2.624648e+01    1.513652e+00
  2.635761e+01    1.118464e+00
  2.646874e+01    9.674572e-01
  2.657987e+01    9.552393e-01
  2.669100e+01    9.134893e-01
  2.680212e+01    9.338647e-01
  2.691325e+01    9.333194e-01
  2.702438e+01    1.049099e+00
  2.713551e+01    1.539296e+00
  2.724664e+01    2.466063e+00
  2.735777e+01    1.544175e+00
  2.746890e+01    1.048344e+00
  2.758003e+01    9.077947e-01
  2.769116e+01    8.412624e-01
  2.780229e+01    8.185807e-01
  2.791342e+01    8.169744e-01
  2.802454e+01    8.129423e-01
  2.813567e+01    8.077780e-01
  2.824680e+01    7.854122e-01
  2.835793e+01    7.743855e-01
  2.846906e+01    7.556612e-01
  2.858019e+01    7.609488e-01
  2.869132e+01    7.462996e-01
  2.880245e+01    7.738211e-01
  2.891358e+01    7.442517e-01
  2.902471e+01    7.141805e-01
  2.913583e+01    7.442675e-01
  2.924696e+01    7.040656e-01
  2.935809e+01    7.290570e-01
  2.946922e+01    7.349505e-01
  2.958035e+01    7.254949e-01
  2.969148e+01    7.238807e-01
  2.980261e+01    7.193467e-01
  2.991374e+01    7.240701e-01
  3.002487e+01    7.232554e-01
  3.013600e+01    7.428389e-01
  3.024712e+01    7.351323e-01
  3.035825e+01    6.925493e-01
  3.046938e+01    6.904356e-01
  3.058051e+01    6.917920e-01
  3.069164e+01    7.193825e-01
  3.080277e+01    7.109045e-01
  3.091390e+01    7.119213e-01
  3.102503e+01    7.338455e-01
  3.113616e+01    6.997086e-01
  3.124729e+01    7.201518e-01
  3.135841e+01    7.247556e-01
  3.146954e+01    7.644600e-01
  3.158067e+01    7.967812e-01
  3.169180e+01    8.949998e-01
  3.180293e+01    1.248851e+00
  3.191406e+01    2.324292e+00
  3.202519e+01    1.780290e+00
  3.213632e+01    9.961357e-01
  3.224745e+01    8.428585e-01
  3.235858e+01    7.494740e-01
  3.246970e+01    7.339441e-01
  3.254908e+01    7.265376e-01