File: XRD/Activation ramp/2024-07-27_002_Ru-CGO-ex_Activtation_ramp_000002_data_000174.dat
# == pyFAI calibration ==
# Distance Sample to Detector: 0.4 m
# PONI: 9.750e-02, 1.135e-01 m
# Rotations: -0.000175 0.000000 -0.000000 rad
#
# == Fit2d calibration ==
# Distance Sample-beamCenter: 400.000 mm
# Center: x=1514.000, y=1300.000 pix
# Tilt: 0.010 deg  TiltPlanRot: 0.010 deg
#
# Detector Detector	 Spline= None	 PixelSize= 7.500e-05, 7.500e-05 m
#    Detector has a mask: False
#    Detector has a dark current: False
#    detector has a flat field: False
#
# Wavelength: 6.888e-11 m
# Mask applied: user provided
# Dark current applied: False
# Flat field applied: False
# Polarization factor: 0.99
# Normalization factor: 1.0
# --> /home/myspot/data/2024_07_Rosario/Ru-CGO-ex/2024-07-27_002_Ru-CGO-ex_Activtation_ramp_000002_data_000174.dat
#       q_nm^-1             I
  2.003187e-02    0.000000e+00
  1.311609e-01    5.329538e-02
  2.422899e-01    1.245221e-02
  3.534189e-01    7.638397e-02
  4.645479e-01    4.252894e-02
  5.756770e-01    5.234141e-02
  6.868060e-01    6.666610e-02
  7.979350e-01    1.405603e-01
  9.090640e-01    5.783527e-01
  1.020193e+00    1.069227e+00
  1.131322e+00    1.324969e+00
  1.242451e+00    2.152447e+00
  1.353580e+00    2.645527e+00
  1.464709e+00    2.617897e+00
  1.575838e+00    2.827271e+00
  1.686967e+00    2.748114e+00
  1.798096e+00    2.778321e+00
  1.909225e+00    2.686411e+00
  2.020354e+00    2.746048e+00
  2.131483e+00    2.754868e+00
  2.242612e+00    2.646298e+00
  2.353741e+00    2.699905e+00
  2.464870e+00    2.785430e+00
  2.575999e+00    2.762472e+00
  2.687128e+00    2.807273e+00
  2.798257e+00    2.885785e+00
  2.909386e+00    2.831646e+00
  3.020515e+00    2.955769e+00
  3.131644e+00    3.041382e+00
  3.242773e+00    2.952526e+00
  3.353902e+00    2.979969e+00
  3.465031e+00    2.931282e+00
  3.576160e+00    2.898925e+00
  3.687289e+00    3.002965e+00
  3.798418e+00    2.971386e+00
  3.909547e+00    3.059909e+00
  4.020676e+00    2.967453e+00
  4.131806e+00    3.041717e+00
  4.242935e+00    3.058213e+00
  4.354064e+00    3.060657e+00
  4.465193e+00    3.083660e+00
  4.576322e+00    3.068194e+00
  4.687451e+00    3.134859e+00
  4.798580e+00    3.140970e+00
  4.909709e+00    3.106986e+00
  5.020838e+00    3.170873e+00
  5.131967e+00    3.166922e+00
  5.243096e+00    3.094674e+00
  5.354225e+00    3.178310e+00
  5.465354e+00    3.109492e+00
  5.576483e+00    3.075879e+00
  5.687612e+00    3.146487e+00
  5.798741e+00    3.045970e+00
  5.909870e+00    3.006926e+00
  6.020999e+00    2.978633e+00
  6.132128e+00    3.135042e+00
  6.243257e+00    3.058262e+00
  6.354386e+00    3.043023e+00
  6.465515e+00    3.007394e+00
  6.576644e+00    3.022072e+00
  6.687773e+00    3.034553e+00
  6.798902e+00    3.124705e+00
  6.910031e+00    3.022539e+00
  7.021160e+00    2.957562e+00
  7.132289e+00    2.962565e+00
  7.243418e+00    3.072001e+00
  7.354547e+00    2.955703e+00
  7.465676e+00    2.996901e+00
  7.576805e+00    2.921754e+00
  7.687934e+00    3.000853e+00
  7.799063e+00    2.969927e+00
  7.910192e+00    2.927409e+00
  8.021321e+00    2.929196e+00
  8.132450e+00    2.925432e+00
  8.243579e+00    2.990180e+00
  8.354708e+00    2.887325e+00
  8.465837e+00    2.884778e+00
  8.576966e+00    2.821467e+00
  8.688095e+00    2.893587e+00
  8.799224e+00    2.828085e+00
  8.910353e+00    2.817779e+00
  9.021482e+00    2.801399e+00
  9.132611e+00    2.821231e+00
  9.243740e+00    2.825464e+00
  9.354869e+00    2.730531e+00
  9.465998e+00    2.779681e+00
  9.577127e+00    2.765004e+00
  9.688256e+00    2.717067e+00
  9.799385e+00    2.675248e+00
  9.910514e+00    2.655189e+00
  1.002164e+01    2.730727e+00
  1.013277e+01    2.644414e+00
  1.024390e+01    2.671263e+00
  1.035503e+01    2.601794e+00
  1.046616e+01    2.564882e+00
  1.057729e+01    2.617628e+00
  1.068842e+01    2.509678e+00
  1.079955e+01    2.573033e+00
  1.091068e+01    2.527851e+00
  1.102180e+01    2.464773e+00
  1.113293e+01    2.500701e+00
  1.124406e+01    2.486544e+00
  1.135519e+01    2.437711e+00
  1.146632e+01    2.441366e+00
  1.157745e+01    2.393486e+00
  1.168858e+01    2.416586e+00
  1.179971e+01    2.368792e+00
  1.191084e+01    2.306602e+00
  1.202197e+01    2.373451e+00
  1.213309e+01    2.349406e+00
  1.224422e+01    2.327435e+00
  1.235535e+01    2.330362e+00
  1.246648e+01    2.350900e+00
  1.257761e+01    2.346339e+00
  1.268874e+01    2.450433e+00
  1.279987e+01    2.656045e+00
  1.291100e+01    3.237672e+00
  1.302213e+01    6.181827e+00
  1.313326e+01    1.405548e+01
  1.324438e+01    1.061356e+01
  1.335551e+01    4.074005e+00
  1.346664e+01    2.724946e+00
  1.357777e+01    2.421473e+00
  1.368890e+01    2.213046e+00
  1.380003e+01    2.117421e+00
  1.391116e+01    2.097273e+00
  1.402229e+01    2.094822e+00
  1.413342e+01    2.018423e+00
  1.424455e+01    1.993429e+00
  1.435568e+01    1.956456e+00
  1.446680e+01    1.932711e+00
  1.457793e+01    1.883476e+00
  1.468906e+01    1.918423e+00
  1.480019e+01    1.918889e+00
  1.491132e+01    1.890829e+00
  1.502245e+01    2.235567e+00
  1.513358e+01    3.422315e+00
  1.524471e+01    5.458537e+00
  1.535584e+01    3.560377e+00
  1.546697e+01    2.201777e+00
  1.557809e+01    1.869096e+00
  1.568922e+01    1.720991e+00
  1.580035e+01    1.689209e+00
  1.591148e+01    1.627181e+00
  1.602261e+01    1.626627e+00
  1.613374e+01    1.590119e+00
  1.624487e+01    1.577170e+00
  1.635600e+01    1.579157e+00
  1.646713e+01    1.545364e+00
  1.657826e+01    1.520427e+00
  1.668938e+01    1.470807e+00
  1.680051e+01    1.462178e+00
  1.691164e+01    1.411375e+00
  1.702277e+01    1.434017e+00
  1.713390e+01    1.432138e+00
  1.724503e+01    1.403651e+00
  1.735616e+01    1.389657e+00
  1.746729e+01    1.399740e+00
  1.757842e+01    1.351923e+00
  1.768955e+01    1.321865e+00
  1.780067e+01    1.319659e+00
  1.791180e+01    1.288714e+00
  1.802293e+01    1.308537e+00
  1.813406e+01    1.269159e+00
  1.824519e+01    1.286041e+00
  1.835632e+01    1.253985e+00
  1.846745e+01    1.252238e+00
  1.857858e+01    1.238773e+00
  1.868971e+01    1.204429e+00
  1.880084e+01    1.223722e+00
  1.891196e+01    1.224157e+00
  1.902309e+01    1.178672e+00
  1.913422e+01    1.174442e+00
  1.924535e+01    1.177454e+00
  1.935648e+01    1.184049e+00
  1.946761e+01    1.143304e+00
  1.957874e+01    1.142316e+00
  1.968987e+01    1.139816e+00
  1.980100e+01    1.137392e+00
  1.991213e+01    1.111027e+00
  2.002325e+01    1.120142e+00
  2.013438e+01    1.107167e+00
  2.024551e+01    1.067792e+00
  2.035664e+01    1.075321e+00
  2.046777e+01    1.062090e+00
  2.057890e+01    1.086273e+00
  2.069003e+01    1.078468e+00
  2.080116e+01    1.077808e+00
  2.091229e+01    1.075347e+00
  2.102342e+01    1.080513e+00
  2.113455e+01    1.095096e+00
  2.124567e+01    1.083640e+00
  2.135680e+01    1.137456e+00
  2.146793e+01    1.198085e+00
  2.157906e+01    1.464521e+00
  2.169019e+01    2.273670e+00
  2.180132e+01    5.480988e+00
  2.191245e+01    8.751794e+00
  2.202358e+01    3.518006e+00
  2.213471e+01    1.755615e+00
  2.224584e+01    1.281603e+00
  2.235696e+01    1.125027e+00
  2.246809e+01    1.007905e+00
  2.257922e+01    9.827116e-01
  2.269035e+01    9.448760e-01
  2.280148e+01    9.143635e-01
  2.291261e+01    9.098779e-01
  2.302374e+01    9.175646e-01
  2.313487e+01    8.869547e-01
  2.324600e+01    8.452469e-01
  2.335713e+01    8.814502e-01
  2.346825e+01    8.395208e-01
  2.357938e+01    8.445690e-01
  2.369051e+01    8.324511e-01
  2.380164e+01    8.161709e-01
  2.391277e+01    7.907906e-01
  2.402390e+01    7.950954e-01
  2.413503e+01    7.678649e-01
  2.424616e+01    7.502673e-01
  2.435729e+01    7.898901e-01
  2.446842e+01    7.899749e-01
  2.457954e+01    7.972819e-01
  2.469067e+01    7.913136e-01
  2.480180e+01    7.865012e-01
  2.491293e+01    7.894145e-01
  2.502406e+01    8.077491e-01
  2.513519e+01    8.317865e-01
  2.524632e+01    8.541376e-01
  2.535745e+01    8.824068e-01
  2.546858e+01    9.478109e-01
  2.557971e+01    1.057961e+00
  2.569083e+01    1.385237e+00
  2.580196e+01    2.622030e+00
  2.591309e+01    6.182009e+00
  2.602422e+01    5.458888e+00
  2.613535e+01    2.090964e+00
  2.624648e+01    1.246949e+00
  2.635761e+01    9.931709e-01
  2.646874e+01    9.297422e-01
  2.657987e+01    8.837262e-01
  2.669100e+01    8.926288e-01
  2.680212e+01    8.520583e-01
  2.691325e+01    9.177988e-01
  2.702438e+01    1.039635e+00
  2.713551e+01    1.580607e+00
  2.724664e+01    2.085621e+00
  2.735777e+01    1.207278e+00
  2.746890e+01    9.580011e-01
  2.758003e+01    8.310061e-01
  2.769116e+01    8.055588e-01
  2.780229e+01    7.878202e-01
  2.791342e+01    7.916385e-01
  2.802454e+01    7.542371e-01
  2.813567e+01    7.861566e-01
  2.824680e+01    7.921893e-01
  2.835793e+01    7.329109e-01
  2.846906e+01    7.657233e-01
  2.858019e+01    7.593493e-01
  2.869132e+01    7.440004e-01
  2.880245e+01    7.308955e-01
  2.891358e+01    7.364197e-01
  2.902471e+01    7.375892e-01
  2.913583e+01    7.354070e-01
  2.924696e+01    7.255893e-01
  2.935809e+01    7.318540e-01
  2.946922e+01    7.068404e-01
  2.958035e+01    7.106267e-01
  2.969148e+01    7.191625e-01
  2.980261e+01    7.284060e-01
  2.991374e+01    6.889158e-01
  3.002487e+01    7.420392e-01
  3.013600e+01    7.054725e-01
  3.024712e+01    7.093458e-01
  3.035825e+01    7.044811e-01
  3.046938e+01    7.122522e-01
  3.058051e+01    7.000694e-01
  3.069164e+01    7.089469e-01
  3.080277e+01    7.221746e-01
  3.091390e+01    6.991379e-01
  3.102503e+01    6.892237e-01
  3.113616e+01    7.162636e-01
  3.124729e+01    7.323087e-01
  3.135841e+01    7.328166e-01
  3.146954e+01    7.256519e-01
  3.158067e+01    7.963452e-01
  3.169180e+01    9.109176e-01
  3.180293e+01    1.383779e+00
  3.191406e+01    2.112886e+00
  3.202519e+01    1.311186e+00
  3.213632e+01    8.956321e-01
  3.224745e+01    7.858172e-01
  3.235858e+01    7.145739e-01
  3.246970e+01    7.262193e-01
  3.254908e+01    7.167671e-01