File: XRD/Activation ramp/2024-07-27_002_Ru-CGO-ex_Activtation_ramp_000002_data_000175.dat
# == pyFAI calibration ==
# Distance Sample to Detector: 0.4 m
# PONI: 9.750e-02, 1.135e-01 m
# Rotations: -0.000175 0.000000 -0.000000 rad
#
# == Fit2d calibration ==
# Distance Sample-beamCenter: 400.000 mm
# Center: x=1514.000, y=1300.000 pix
# Tilt: 0.010 deg  TiltPlanRot: 0.010 deg
#
# Detector Detector	 Spline= None	 PixelSize= 7.500e-05, 7.500e-05 m
#    Detector has a mask: False
#    Detector has a dark current: False
#    detector has a flat field: False
#
# Wavelength: 6.888e-11 m
# Mask applied: user provided
# Dark current applied: False
# Flat field applied: False
# Polarization factor: 0.99
# Normalization factor: 1.0
# --> /home/myspot/data/2024_07_Rosario/Ru-CGO-ex/2024-07-27_002_Ru-CGO-ex_Activtation_ramp_000002_data_000175.dat
#       q_nm^-1             I
  2.003187e-02    7.712225e-02
  1.311609e-01    6.517810e-03
  2.422899e-01    1.568464e-02
  3.534189e-01    2.699923e-02
  4.645479e-01    2.904961e-02
  5.756770e-01    3.416659e-02
  6.868060e-01    3.837214e-02
  7.979350e-01    1.322134e-01
  9.090640e-01    6.133762e-01
  1.020193e+00    1.067223e+00
  1.131322e+00    1.343741e+00
  1.242451e+00    2.163530e+00
  1.353580e+00    2.558925e+00
  1.464709e+00    2.680607e+00
  1.575838e+00    2.922240e+00
  1.686967e+00    2.838452e+00
  1.798096e+00    2.801290e+00
  1.909225e+00    2.801567e+00
  2.020354e+00    2.749743e+00
  2.131483e+00    2.675391e+00
  2.242612e+00    2.609852e+00
  2.353741e+00    2.879922e+00
  2.464870e+00    2.777565e+00
  2.575999e+00    2.856663e+00
  2.687128e+00    2.795627e+00
  2.798257e+00    2.778037e+00
  2.909386e+00    2.840472e+00
  3.020515e+00    2.943167e+00
  3.131644e+00    2.911801e+00
  3.242773e+00    2.940717e+00
  3.353902e+00    3.033277e+00
  3.465031e+00    2.975181e+00
  3.576160e+00    2.993317e+00
  3.687289e+00    2.972117e+00
  3.798418e+00    3.005419e+00
  3.909547e+00    3.057592e+00
  4.020676e+00    3.035220e+00
  4.131806e+00    3.042650e+00
  4.242935e+00    3.071521e+00
  4.354064e+00    3.089269e+00
  4.465193e+00    3.053689e+00
  4.576322e+00    3.041375e+00
  4.687451e+00    3.139700e+00
  4.798580e+00    3.071638e+00
  4.909709e+00    3.072032e+00
  5.020838e+00    3.210495e+00
  5.131967e+00    3.128542e+00
  5.243096e+00    3.112806e+00
  5.354225e+00    3.151462e+00
  5.465354e+00    3.119317e+00
  5.576483e+00    3.118421e+00
  5.687612e+00    3.066606e+00
  5.798741e+00    3.071297e+00
  5.909870e+00    3.020965e+00
  6.020999e+00    2.998735e+00
  6.132128e+00    3.130078e+00
  6.243257e+00    2.983614e+00
  6.354386e+00    3.016757e+00
  6.465515e+00    3.067747e+00
  6.576644e+00    3.088982e+00
  6.687773e+00    3.001951e+00
  6.798902e+00    3.016671e+00
  6.910031e+00    3.069163e+00
  7.021160e+00    2.930851e+00
  7.132289e+00    3.018654e+00
  7.243418e+00    2.982836e+00
  7.354547e+00    3.010841e+00
  7.465676e+00    3.065168e+00
  7.576805e+00    2.965898e+00
  7.687934e+00    2.921697e+00
  7.799063e+00    2.870458e+00
  7.910192e+00    2.976436e+00
  8.021321e+00    2.961629e+00
  8.132450e+00    2.964775e+00
  8.243579e+00    3.002251e+00
  8.354708e+00    2.890199e+00
  8.465837e+00    2.914968e+00
  8.576966e+00    2.874245e+00
  8.688095e+00    2.940981e+00
  8.799224e+00    2.858269e+00
  8.910353e+00    2.842296e+00
  9.021482e+00    2.790891e+00
  9.132611e+00    2.790736e+00
  9.243740e+00    2.793606e+00
  9.354869e+00    2.815356e+00
  9.465998e+00    2.799115e+00
  9.577127e+00    2.828901e+00
  9.688256e+00    2.765579e+00
  9.799385e+00    2.725072e+00
  9.910514e+00    2.698282e+00
  1.002164e+01    2.638919e+00
  1.013277e+01    2.680187e+00
  1.024390e+01    2.615087e+00
  1.035503e+01    2.636175e+00
  1.046616e+01    2.581212e+00
  1.057729e+01    2.595618e+00
  1.068842e+01    2.561330e+00
  1.079955e+01    2.551328e+00
  1.091068e+01    2.538262e+00
  1.102180e+01    2.494271e+00
  1.113293e+01    2.431181e+00
  1.124406e+01    2.500566e+00
  1.135519e+01    2.435975e+00
  1.146632e+01    2.416602e+00
  1.157745e+01    2.422990e+00
  1.168858e+01    2.409466e+00
  1.179971e+01    2.307410e+00
  1.191084e+01    2.339092e+00
  1.202197e+01    2.316226e+00
  1.213309e+01    2.315971e+00
  1.224422e+01    2.291147e+00
  1.235535e+01    2.288714e+00
  1.246648e+01    2.358448e+00
  1.257761e+01    2.366959e+00
  1.268874e+01    2.454071e+00
  1.279987e+01    2.618481e+00
  1.291100e+01    3.216725e+00
  1.302213e+01    6.161766e+00
  1.313326e+01    1.409618e+01
  1.324438e+01    1.067069e+01
  1.335551e+01    4.140134e+00
  1.346664e+01    2.806555e+00
  1.357777e+01    2.343931e+00
  1.368890e+01    2.239583e+00
  1.380003e+01    2.194207e+00
  1.391116e+01    2.079057e+00
  1.402229e+01    2.018144e+00
  1.413342e+01    1.986327e+00
  1.424455e+01    1.981992e+00
  1.435568e+01    1.913599e+00
  1.446680e+01    1.934399e+00
  1.457793e+01    1.889271e+00
  1.468906e+01    1.926285e+00
  1.480019e+01    1.904335e+00
  1.491132e+01    1.928062e+00
  1.502245e+01    2.204345e+00
  1.513358e+01    3.425206e+00
  1.524471e+01    5.405510e+00
  1.535584e+01    3.579510e+00
  1.546697e+01    2.213554e+00
  1.557809e+01    1.849241e+00
  1.568922e+01    1.766188e+00
  1.580035e+01    1.687584e+00
  1.591148e+01    1.674283e+00
  1.602261e+01    1.621995e+00
  1.613374e+01    1.596259e+00
  1.624487e+01    1.530827e+00
  1.635600e+01    1.516998e+00
  1.646713e+01    1.526126e+00
  1.657826e+01    1.496402e+00
  1.668938e+01    1.490961e+00
  1.680051e+01    1.474915e+00
  1.691164e+01    1.454413e+00
  1.702277e+01    1.422091e+00
  1.713390e+01    1.430454e+00
  1.724503e+01    1.412207e+00
  1.735616e+01    1.371355e+00
  1.746729e+01    1.378521e+00
  1.757842e+01    1.352082e+00
  1.768955e+01    1.329131e+00
  1.780067e+01    1.323705e+00
  1.791180e+01    1.309817e+00
  1.802293e+01    1.328598e+00
  1.813406e+01    1.271755e+00
  1.824519e+01    1.286576e+00
  1.835632e+01    1.275182e+00
  1.846745e+01    1.233626e+00
  1.857858e+01    1.243905e+00
  1.868971e+01    1.223726e+00
  1.880084e+01    1.238565e+00
  1.891196e+01    1.217822e+00
  1.902309e+01    1.187227e+00
  1.913422e+01    1.178632e+00
  1.924535e+01    1.173955e+00
  1.935648e+01    1.188438e+00
  1.946761e+01    1.171084e+00
  1.957874e+01    1.137265e+00
  1.968987e+01    1.104891e+00
  1.980100e+01    1.145298e+00
  1.991213e+01    1.138392e+00
  2.002325e+01    1.104191e+00
  2.013438e+01    1.112435e+00
  2.024551e+01    1.097349e+00
  2.035664e+01    1.092704e+00
  2.046777e+01    1.072588e+00
  2.057890e+01    1.078808e+00
  2.069003e+01    1.045704e+00
  2.080116e+01    1.088878e+00
  2.091229e+01    1.076038e+00
  2.102342e+01    1.067413e+00
  2.113455e+01    1.066180e+00
  2.124567e+01    1.104725e+00
  2.135680e+01    1.114296e+00
  2.146793e+01    1.211129e+00
  2.157906e+01    1.482568e+00
  2.169019e+01    2.297238e+00
  2.180132e+01    5.478099e+00
  2.191245e+01    8.738399e+00
  2.202358e+01    3.526863e+00
  2.213471e+01    1.751144e+00
  2.224584e+01    1.236986e+00
  2.235696e+01    1.106360e+00
  2.246809e+01    1.053281e+00
  2.257922e+01    9.732469e-01
  2.269035e+01    9.623915e-01
  2.280148e+01    9.223352e-01
  2.291261e+01    9.043083e-01
  2.302374e+01    8.929145e-01
  2.313487e+01    8.620974e-01
  2.324600e+01    8.774660e-01
  2.335713e+01    8.564226e-01
  2.346825e+01    8.736504e-01
  2.357938e+01    8.449405e-01
  2.369051e+01    8.215136e-01
  2.380164e+01    8.063896e-01
  2.391277e+01    7.941103e-01
  2.402390e+01    7.895283e-01
  2.413503e+01    7.675460e-01
  2.424616e+01    7.868234e-01
  2.435729e+01    7.595954e-01
  2.446842e+01    7.608837e-01
  2.457954e+01    7.788046e-01
  2.469067e+01    7.755804e-01
  2.480180e+01    7.810758e-01
  2.491293e+01    8.124597e-01
  2.502406e+01    8.028478e-01
  2.513519e+01    8.120296e-01
  2.524632e+01    8.372296e-01
  2.535745e+01    8.885170e-01
  2.546858e+01    9.356845e-01
  2.557971e+01    1.057276e+00
  2.569083e+01    1.367394e+00
  2.580196e+01    2.601163e+00
  2.591309e+01    6.100521e+00
  2.602422e+01    5.477288e+00
  2.613535e+01    2.094395e+00
  2.624648e+01    1.264248e+00
  2.635761e+01    1.005882e+00
  2.646874e+01    9.492182e-01
  2.657987e+01    8.781814e-01
  2.669100e+01    8.724537e-01
  2.680212e+01    8.854406e-01
  2.691325e+01    9.210843e-01
  2.702438e+01    1.050355e+00
  2.713551e+01    1.615111e+00
  2.724664e+01    2.095616e+00
  2.735777e+01    1.234242e+00
  2.746890e+01    9.218914e-01
  2.758003e+01    8.412417e-01
  2.769116e+01    8.503162e-01
  2.780229e+01    7.926902e-01
  2.791342e+01    7.837723e-01
  2.802454e+01    7.785270e-01
  2.813567e+01    7.843071e-01
  2.824680e+01    7.507076e-01
  2.835793e+01    7.670197e-01
  2.846906e+01    7.492733e-01
  2.858019e+01    7.485338e-01
  2.869132e+01    7.416807e-01
  2.880245e+01    7.146401e-01
  2.891358e+01    7.424217e-01
  2.902471e+01    7.290194e-01
  2.913583e+01    7.551289e-01
  2.924696e+01    7.051489e-01
  2.935809e+01    7.134925e-01
  2.946922e+01    7.099623e-01
  2.958035e+01    7.216192e-01
  2.969148e+01    7.094214e-01
  2.980261e+01    6.995198e-01
  2.991374e+01    7.262582e-01
  3.002487e+01    7.320658e-01
  3.013600e+01    7.146800e-01
  3.024712e+01    7.102411e-01
  3.035825e+01    6.891277e-01
  3.046938e+01    7.155018e-01
  3.058051e+01    6.858340e-01
  3.069164e+01    7.189460e-01
  3.080277e+01    7.069016e-01
  3.091390e+01    7.070605e-01
  3.102503e+01    7.042505e-01
  3.113616e+01    7.248656e-01
  3.124729e+01    7.106802e-01
  3.135841e+01    7.088466e-01
  3.146954e+01    7.473533e-01
  3.158067e+01    7.944257e-01
  3.169180e+01    9.277932e-01
  3.180293e+01    1.357767e+00
  3.191406e+01    2.109681e+00
  3.202519e+01    1.297475e+00
  3.213632e+01    8.767081e-01
  3.224745e+01    7.769906e-01
  3.235858e+01    7.424899e-01
  3.246970e+01    7.309923e-01
  3.254908e+01    7.253821e-01