File: XRD/Activation ramp/2024-07-27_002_Ru-CGO-ex_Activtation_ramp_000002_data_000183.dat
# == pyFAI calibration ==
# Distance Sample to Detector: 0.4 m
# PONI: 9.750e-02, 1.135e-01 m
# Rotations: -0.000175 0.000000 -0.000000 rad
#
# == Fit2d calibration ==
# Distance Sample-beamCenter: 400.000 mm
# Center: x=1514.000, y=1300.000 pix
# Tilt: 0.010 deg  TiltPlanRot: 0.010 deg
#
# Detector Detector	 Spline= None	 PixelSize= 7.500e-05, 7.500e-05 m
#    Detector has a mask: False
#    Detector has a dark current: False
#    detector has a flat field: False
#
# Wavelength: 6.888e-11 m
# Mask applied: user provided
# Dark current applied: False
# Flat field applied: False
# Polarization factor: 0.99
# Normalization factor: 1.0
# --> /home/myspot/data/2024_07_Rosario/Ru-CGO-ex/2024-07-27_002_Ru-CGO-ex_Activtation_ramp_000002_data_000183.dat
#       q_nm^-1             I
  2.003187e-02    1.216594e-01
  1.311609e-01    0.000000e+00
  2.422899e-01    1.870546e-02
  3.534189e-01    5.843255e-02
  4.645479e-01    3.352927e-02
  5.756770e-01    8.077640e-02
  6.868060e-01    3.718254e-02
  7.979350e-01    1.214454e-01
  9.090640e-01    5.655230e-01
  1.020193e+00    1.051960e+00
  1.131322e+00    1.501956e+00
  1.242451e+00    2.099343e+00
  1.353580e+00    2.364104e+00
  1.464709e+00    2.638668e+00
  1.575838e+00    2.802010e+00
  1.686967e+00    2.768592e+00
  1.798096e+00    2.742226e+00
  1.909225e+00    2.786911e+00
  2.020354e+00    2.704242e+00
  2.131483e+00    2.575804e+00
  2.242612e+00    2.727281e+00
  2.353741e+00    2.739795e+00
  2.464870e+00    2.819074e+00
  2.575999e+00    2.863753e+00
  2.687128e+00    2.967097e+00
  2.798257e+00    2.728428e+00
  2.909386e+00    2.718951e+00
  3.020515e+00    2.877960e+00
  3.131644e+00    3.043251e+00
  3.242773e+00    2.850320e+00
  3.353902e+00    2.930121e+00
  3.465031e+00    2.905333e+00
  3.576160e+00    2.900818e+00
  3.687289e+00    3.044115e+00
  3.798418e+00    3.030483e+00
  3.909547e+00    3.042448e+00
  4.020676e+00    3.092688e+00
  4.131806e+00    3.075989e+00
  4.242935e+00    3.065328e+00
  4.354064e+00    3.000980e+00
  4.465193e+00    3.062112e+00
  4.576322e+00    3.072461e+00
  4.687451e+00    3.099446e+00
  4.798580e+00    3.114445e+00
  4.909709e+00    3.174999e+00
  5.020838e+00    3.145084e+00
  5.131967e+00    3.123434e+00
  5.243096e+00    3.201941e+00
  5.354225e+00    3.182460e+00
  5.465354e+00    3.046743e+00
  5.576483e+00    3.057054e+00
  5.687612e+00    3.145071e+00
  5.798741e+00    3.079419e+00
  5.909870e+00    3.000220e+00
  6.020999e+00    3.089866e+00
  6.132128e+00    3.111278e+00
  6.243257e+00    2.986583e+00
  6.354386e+00    3.110911e+00
  6.465515e+00    3.086534e+00
  6.576644e+00    3.038258e+00
  6.687773e+00    3.006489e+00
  6.798902e+00    3.125160e+00
  6.910031e+00    3.069395e+00
  7.021160e+00    2.988846e+00
  7.132289e+00    2.957472e+00
  7.243418e+00    3.010589e+00
  7.354547e+00    3.026929e+00
  7.465676e+00    3.007689e+00
  7.576805e+00    2.990438e+00
  7.687934e+00    2.978890e+00
  7.799063e+00    2.937998e+00
  7.910192e+00    2.958545e+00
  8.021321e+00    2.901380e+00
  8.132450e+00    2.965051e+00
  8.243579e+00    2.970269e+00
  8.354708e+00    2.872840e+00
  8.465837e+00    2.888079e+00
  8.576966e+00    2.931364e+00
  8.688095e+00    2.934417e+00
  8.799224e+00    2.828024e+00
  8.910353e+00    2.856631e+00
  9.021482e+00    2.845063e+00
  9.132611e+00    2.814440e+00
  9.243740e+00    2.841637e+00
  9.354869e+00    2.740868e+00
  9.465998e+00    2.796274e+00
  9.577127e+00    2.756115e+00
  9.688256e+00    2.766462e+00
  9.799385e+00    2.740593e+00
  9.910514e+00    2.667940e+00
  1.002164e+01    2.697600e+00
  1.013277e+01    2.709405e+00
  1.024390e+01    2.677038e+00
  1.035503e+01    2.625416e+00
  1.046616e+01    2.624296e+00
  1.057729e+01    2.509913e+00
  1.068842e+01    2.544577e+00
  1.079955e+01    2.504120e+00
  1.091068e+01    2.550362e+00
  1.102180e+01    2.473051e+00
  1.113293e+01    2.469010e+00
  1.124406e+01    2.476603e+00
  1.135519e+01    2.402009e+00
  1.146632e+01    2.449381e+00
  1.157745e+01    2.353320e+00
  1.168858e+01    2.402902e+00
  1.179971e+01    2.405856e+00
  1.191084e+01    2.321791e+00
  1.202197e+01    2.334574e+00
  1.213309e+01    2.273063e+00
  1.224422e+01    2.345489e+00
  1.235535e+01    2.319424e+00
  1.246648e+01    2.372766e+00
  1.257761e+01    2.396975e+00
  1.268874e+01    2.393589e+00
  1.279987e+01    2.633583e+00
  1.291100e+01    3.323516e+00
  1.302213e+01    6.124546e+00
  1.313326e+01    1.393389e+01
  1.324438e+01    1.052081e+01
  1.335551e+01    4.116793e+00
  1.346664e+01    2.817908e+00
  1.357777e+01    2.449276e+00
  1.368890e+01    2.189000e+00
  1.380003e+01    2.197091e+00
  1.391116e+01    2.089134e+00
  1.402229e+01    2.065521e+00
  1.413342e+01    2.002976e+00
  1.424455e+01    1.993054e+00
  1.435568e+01    1.917231e+00
  1.446680e+01    1.911373e+00
  1.457793e+01    1.926026e+00
  1.468906e+01    1.916671e+00
  1.480019e+01    1.942509e+00
  1.491132e+01    1.996875e+00
  1.502245e+01    2.280843e+00
  1.513358e+01    3.397519e+00
  1.524471e+01    5.392097e+00
  1.535584e+01    3.528008e+00
  1.546697e+01    2.189653e+00
  1.557809e+01    1.844396e+00
  1.568922e+01    1.770675e+00
  1.580035e+01    1.670545e+00
  1.591148e+01    1.671614e+00
  1.602261e+01    1.617190e+00
  1.613374e+01    1.589071e+00
  1.624487e+01    1.549481e+00
  1.635600e+01    1.533439e+00
  1.646713e+01    1.518115e+00
  1.657826e+01    1.498242e+00
  1.668938e+01    1.511552e+00
  1.680051e+01    1.478330e+00
  1.691164e+01    1.461306e+00
  1.702277e+01    1.436379e+00
  1.713390e+01    1.435615e+00
  1.724503e+01    1.397094e+00
  1.735616e+01    1.378389e+00
  1.746729e+01    1.379629e+00
  1.757842e+01    1.385856e+00
  1.768955e+01    1.330977e+00
  1.780067e+01    1.319752e+00
  1.791180e+01    1.328053e+00
  1.802293e+01    1.319445e+00
  1.813406e+01    1.337539e+00
  1.824519e+01    1.277178e+00
  1.835632e+01    1.271830e+00
  1.846745e+01    1.250753e+00
  1.857858e+01    1.225380e+00
  1.868971e+01    1.233193e+00
  1.880084e+01    1.219846e+00
  1.891196e+01    1.230919e+00
  1.902309e+01    1.199268e+00
  1.913422e+01    1.175345e+00
  1.924535e+01    1.178132e+00
  1.935648e+01    1.175518e+00
  1.946761e+01    1.177852e+00
  1.957874e+01    1.163874e+00
  1.968987e+01    1.139600e+00
  1.980100e+01    1.127748e+00
  1.991213e+01    1.121758e+00
  2.002325e+01    1.104162e+00
  2.013438e+01    1.101915e+00
  2.024551e+01    1.090922e+00
  2.035664e+01    1.098826e+00
  2.046777e+01    1.063168e+00
  2.057890e+01    1.092185e+00
  2.069003e+01    1.066203e+00
  2.080116e+01    1.077874e+00
  2.091229e+01    1.086981e+00
  2.102342e+01    1.084250e+00
  2.113455e+01    1.092157e+00
  2.124567e+01    1.103806e+00
  2.135680e+01    1.130562e+00
  2.146793e+01    1.240104e+00
  2.157906e+01    1.466338e+00
  2.169019e+01    2.327770e+00
  2.180132e+01    5.442426e+00
  2.191245e+01    8.616215e+00
  2.202358e+01    3.475689e+00
  2.213471e+01    1.730960e+00
  2.224584e+01    1.255526e+00
  2.235696e+01    1.125599e+00
  2.246809e+01    1.008701e+00
  2.257922e+01    9.665778e-01
  2.269035e+01    9.686969e-01
  2.280148e+01    9.286053e-01
  2.291261e+01    8.976970e-01
  2.302374e+01    9.091666e-01
  2.313487e+01    8.758383e-01
  2.324600e+01    8.567892e-01
  2.335713e+01    8.632019e-01
  2.346825e+01    8.453951e-01
  2.357938e+01    8.351619e-01
  2.369051e+01    8.502591e-01
  2.380164e+01    8.130986e-01
  2.391277e+01    7.982391e-01
  2.402390e+01    7.920026e-01
  2.413503e+01    7.950878e-01
  2.424616e+01    8.070180e-01
  2.435729e+01    8.053166e-01
  2.446842e+01    7.745152e-01
  2.457954e+01    8.091794e-01
  2.469067e+01    7.887277e-01
  2.480180e+01    7.698225e-01
  2.491293e+01    7.825959e-01
  2.502406e+01    8.134221e-01
  2.513519e+01    7.942108e-01
  2.524632e+01    8.514922e-01
  2.535745e+01    8.868658e-01
  2.546858e+01    9.297894e-01
  2.557971e+01    1.067299e+00
  2.569083e+01    1.381932e+00
  2.580196e+01    2.639427e+00
  2.591309e+01    6.095974e+00
  2.602422e+01    5.325201e+00
  2.613535e+01    2.060990e+00
  2.624648e+01    1.246107e+00
  2.635761e+01    1.009327e+00
  2.646874e+01    9.371746e-01
  2.657987e+01    8.965622e-01
  2.669100e+01    8.682504e-01
  2.680212e+01    8.776208e-01
  2.691325e+01    9.205025e-01
  2.702438e+01    1.064827e+00
  2.713551e+01    1.609909e+00
  2.724664e+01    2.066926e+00
  2.735777e+01    1.208926e+00
  2.746890e+01    9.288556e-01
  2.758003e+01    8.424557e-01
  2.769116e+01    8.107912e-01
  2.780229e+01    7.880202e-01
  2.791342e+01    7.923739e-01
  2.802454e+01    7.527393e-01
  2.813567e+01    7.748634e-01
  2.824680e+01    7.810019e-01
  2.835793e+01    7.752317e-01
  2.846906e+01    7.378428e-01
  2.858019e+01    7.524310e-01
  2.869132e+01    7.523128e-01
  2.880245e+01    7.319072e-01
  2.891358e+01    7.275769e-01
  2.902471e+01    7.285783e-01
  2.913583e+01    7.166830e-01
  2.924696e+01    7.083079e-01
  2.935809e+01    7.281520e-01
  2.946922e+01    7.185677e-01
  2.958035e+01    7.146622e-01
  2.969148e+01    7.120426e-01
  2.980261e+01    7.182826e-01
  2.991374e+01    6.980218e-01
  3.002487e+01    7.339557e-01
  3.013600e+01    7.124951e-01
  3.024712e+01    7.103653e-01
  3.035825e+01    7.219467e-01
  3.046938e+01    6.958647e-01
  3.058051e+01    6.970184e-01
  3.069164e+01    6.864582e-01
  3.080277e+01    7.140800e-01
  3.091390e+01    7.344994e-01
  3.102503e+01    7.101967e-01
  3.113616e+01    7.214804e-01
  3.124729e+01    7.332665e-01
  3.135841e+01    7.431717e-01
  3.146954e+01    7.609457e-01
  3.158067e+01    7.953851e-01
  3.169180e+01    9.204335e-01
  3.180293e+01    1.372719e+00
  3.191406e+01    2.080036e+00
  3.202519e+01    1.269325e+00
  3.213632e+01    8.806357e-01
  3.224745e+01    7.810645e-01
  3.235858e+01    7.272414e-01
  3.246970e+01    6.998773e-01
  3.254908e+01    6.965190e-01