File: XRD/Activation ramp/2024-07-27_002_Ru-CGO-ex_Activtation_ramp_000002_data_000008.dat
# == pyFAI calibration ==
# Distance Sample to Detector: 0.4 m
# PONI: 9.750e-02, 1.135e-01 m
# Rotations: -0.000175 0.000000 -0.000000 rad
#
# == Fit2d calibration ==
# Distance Sample-beamCenter: 400.000 mm
# Center: x=1514.000, y=1300.000 pix
# Tilt: 0.010 deg  TiltPlanRot: 0.010 deg
#
# Detector Detector	 Spline= None	 PixelSize= 7.500e-05, 7.500e-05 m
#    Detector has a mask: False
#    Detector has a dark current: False
#    detector has a flat field: False
#
# Wavelength: 6.888e-11 m
# Mask applied: user provided
# Dark current applied: False
# Flat field applied: False
# Polarization factor: 0.99
# Normalization factor: 1.0
# --> /home/myspot/data/2024_07_Rosario/Ru-CGO-ex/2024-07-27_002_Ru-CGO-ex_Activtation_ramp_000002_data_000008.dat
#       q_nm^-1             I
  2.003187e-02    0.000000e+00
  1.311609e-01    1.407318e-01
  2.422899e-01    4.598907e-02
  3.534189e-01    1.296032e-02
  4.645479e-01    3.754138e-02
  5.756770e-01    4.185367e-02
  6.868060e-01    3.898361e-02
  7.979350e-01    1.730512e-01
  9.090640e-01    6.443627e-01
  1.020193e+00    1.212255e+00
  1.131322e+00    1.351485e+00
  1.242451e+00    2.184552e+00
  1.353580e+00    2.501215e+00
  1.464709e+00    2.907318e+00
  1.575838e+00    3.053293e+00
  1.686967e+00    2.849097e+00
  1.798096e+00    2.934089e+00
  1.909225e+00    2.808747e+00
  2.020354e+00    2.850644e+00
  2.131483e+00    2.842647e+00
  2.242612e+00    2.721926e+00
  2.353741e+00    2.798480e+00
  2.464870e+00    2.832508e+00
  2.575999e+00    2.833857e+00
  2.687128e+00    2.918986e+00
  2.798257e+00    2.857207e+00
  2.909386e+00    2.868342e+00
  3.020515e+00    2.954777e+00
  3.131644e+00    2.942499e+00
  3.242773e+00    3.039852e+00
  3.353902e+00    3.007906e+00
  3.465031e+00    3.036865e+00
  3.576160e+00    3.004498e+00
  3.687289e+00    2.988359e+00
  3.798418e+00    3.014593e+00
  3.909547e+00    3.105426e+00
  4.020676e+00    3.059574e+00
  4.131806e+00    3.040796e+00
  4.242935e+00    3.059399e+00
  4.354064e+00    3.049298e+00
  4.465193e+00    3.018870e+00
  4.576322e+00    3.132236e+00
  4.687451e+00    3.152400e+00
  4.798580e+00    3.105968e+00
  4.909709e+00    3.110162e+00
  5.020838e+00    3.049628e+00
  5.131967e+00    3.173253e+00
  5.243096e+00    3.174220e+00
  5.354225e+00    3.182057e+00
  5.465354e+00    3.097413e+00
  5.576483e+00    3.153735e+00
  5.687612e+00    3.174451e+00
  5.798741e+00    3.026197e+00
  5.909870e+00    3.118208e+00
  6.020999e+00    3.026830e+00
  6.132128e+00    3.102731e+00
  6.243257e+00    3.119922e+00
  6.354386e+00    3.094076e+00
  6.465515e+00    3.012831e+00
  6.576644e+00    3.021158e+00
  6.687773e+00    3.077896e+00
  6.798902e+00    3.026081e+00
  6.910031e+00    3.030633e+00
  7.021160e+00    3.066056e+00
  7.132289e+00    3.053268e+00
  7.243418e+00    3.018919e+00
  7.354547e+00    3.046204e+00
  7.465676e+00    3.032617e+00
  7.576805e+00    2.936855e+00
  7.687934e+00    2.912280e+00
  7.799063e+00    3.029670e+00
  7.910192e+00    2.978223e+00
  8.021321e+00    2.970448e+00
  8.132450e+00    2.934531e+00
  8.243579e+00    2.952883e+00
  8.354708e+00    2.925086e+00
  8.465837e+00    2.944063e+00
  8.576966e+00    2.970193e+00
  8.688095e+00    2.870800e+00
  8.799224e+00    2.897013e+00
  8.910353e+00    2.878755e+00
  9.021482e+00    2.859944e+00
  9.132611e+00    2.781233e+00
  9.243740e+00    2.832879e+00
  9.354869e+00    2.776390e+00
  9.465998e+00    2.759130e+00
  9.577127e+00    2.722316e+00
  9.688256e+00    2.802171e+00
  9.799385e+00    2.754309e+00
  9.910514e+00    2.711561e+00
  1.002164e+01    2.680362e+00
  1.013277e+01    2.642528e+00
  1.024390e+01    2.677322e+00
  1.035503e+01    2.698580e+00
  1.046616e+01    2.623951e+00
  1.057729e+01    2.659657e+00
  1.068842e+01    2.602874e+00
  1.079955e+01    2.587001e+00
  1.091068e+01    2.537464e+00
  1.102180e+01    2.550292e+00
  1.113293e+01    2.544993e+00
  1.124406e+01    2.467504e+00
  1.135519e+01    2.460879e+00
  1.146632e+01    2.456693e+00
  1.157745e+01    2.424646e+00
  1.168858e+01    2.420614e+00
  1.179971e+01    2.370679e+00
  1.191084e+01    2.392331e+00
  1.202197e+01    2.317986e+00
  1.213309e+01    2.392117e+00
  1.224422e+01    2.300508e+00
  1.235535e+01    2.402667e+00
  1.246648e+01    2.389593e+00
  1.257761e+01    2.430157e+00
  1.268874e+01    2.527150e+00
  1.279987e+01    2.688887e+00
  1.291100e+01    3.325351e+00
  1.302213e+01    5.778399e+00
  1.313326e+01    1.511808e+01
  1.324438e+01    1.680402e+01
  1.335551e+01    5.566133e+00
  1.346664e+01    3.240388e+00
  1.357777e+01    2.602587e+00
  1.368890e+01    2.381549e+00
  1.380003e+01    2.321382e+00
  1.391116e+01    2.179900e+00
  1.402229e+01    2.098965e+00
  1.413342e+01    2.082718e+00
  1.424455e+01    2.026394e+00
  1.435568e+01    1.978695e+00
  1.446680e+01    1.951779e+00
  1.457793e+01    1.956079e+00
  1.468906e+01    1.976251e+00
  1.480019e+01    1.905137e+00
  1.491132e+01    1.975043e+00
  1.502245e+01    2.156758e+00
  1.513358e+01    3.219824e+00
  1.524471e+01    5.993086e+00
  1.535584e+01    5.249010e+00
  1.546697e+01    2.526225e+00
  1.557809e+01    1.936237e+00
  1.568922e+01    1.826046e+00
  1.580035e+01    1.725766e+00
  1.591148e+01    1.702497e+00
  1.602261e+01    1.650808e+00
  1.613374e+01    1.606253e+00
  1.624487e+01    1.603552e+00
  1.635600e+01    1.550834e+00
  1.646713e+01    1.553205e+00
  1.657826e+01    1.510908e+00
  1.668938e+01    1.530946e+00
  1.680051e+01    1.469686e+00
  1.691164e+01    1.477150e+00
  1.702277e+01    1.466324e+00
  1.713390e+01    1.449348e+00
  1.724503e+01    1.441385e+00
  1.735616e+01    1.446878e+00
  1.746729e+01    1.405572e+00
  1.757842e+01    1.388316e+00
  1.768955e+01    1.354147e+00
  1.780067e+01    1.361159e+00
  1.791180e+01    1.349186e+00
  1.802293e+01    1.322691e+00
  1.813406e+01    1.335406e+00
  1.824519e+01    1.282296e+00
  1.835632e+01    1.295355e+00
  1.846745e+01    1.289986e+00
  1.857858e+01    1.267120e+00
  1.868971e+01    1.230986e+00
  1.880084e+01    1.235339e+00
  1.891196e+01    1.240703e+00
  1.902309e+01    1.198332e+00
  1.913422e+01    1.220867e+00
  1.924535e+01    1.185816e+00
  1.935648e+01    1.184696e+00
  1.946761e+01    1.161010e+00
  1.957874e+01    1.164606e+00
  1.968987e+01    1.179494e+00
  1.980100e+01    1.178663e+00
  1.991213e+01    1.142765e+00
  2.002325e+01    1.146745e+00
  2.013438e+01    1.143198e+00
  2.024551e+01    1.144432e+00
  2.035664e+01    1.109525e+00
  2.046777e+01    1.100815e+00
  2.057890e+01    1.122797e+00
  2.069003e+01    1.098237e+00
  2.080116e+01    1.096552e+00
  2.091229e+01    1.112397e+00
  2.102342e+01    1.083690e+00
  2.113455e+01    1.100793e+00
  2.124567e+01    1.145496e+00
  2.135680e+01    1.162903e+00
  2.146793e+01    1.259063e+00
  2.157906e+01    1.482782e+00
  2.169019e+01    2.086664e+00
  2.180132e+01    4.745056e+00
  2.191245e+01    1.060712e+01
  2.202358e+01    6.438662e+00
  2.213471e+01    2.408489e+00
  2.224584e+01    1.543700e+00
  2.235696e+01    1.224646e+00
  2.246809e+01    1.110108e+00
  2.257922e+01    1.043672e+00
  2.269035e+01    9.849077e-01
  2.280148e+01    9.639184e-01
  2.291261e+01    9.546651e-01
  2.302374e+01    9.228451e-01
  2.313487e+01    9.232085e-01
  2.324600e+01    8.692725e-01
  2.335713e+01    8.809180e-01
  2.346825e+01    8.745524e-01
  2.357938e+01    8.661019e-01
  2.369051e+01    8.513283e-01
  2.380164e+01    8.456092e-01
  2.391277e+01    8.124617e-01
  2.402390e+01    7.926362e-01
  2.413503e+01    8.148804e-01
  2.424616e+01    7.993021e-01
  2.435729e+01    8.072135e-01
  2.446842e+01    8.085125e-01
  2.457954e+01    8.077123e-01
  2.469067e+01    8.161132e-01
  2.480180e+01    8.192452e-01
  2.491293e+01    8.156959e-01
  2.502406e+01    8.228287e-01
  2.513519e+01    8.330298e-01
  2.524632e+01    8.645477e-01
  2.535745e+01    9.011919e-01
  2.546858e+01    9.471545e-01
  2.557971e+01    1.054105e+00
  2.569083e+01    1.323393e+00
  2.580196e+01    2.163918e+00
  2.591309e+01    5.422537e+00
  2.602422e+01    9.122567e+00
  2.613535e+01    3.784609e+00
  2.624648e+01    1.715177e+00
  2.635761e+01    1.208064e+00
  2.646874e+01    1.032653e+00
  2.657987e+01    9.600449e-01
  2.669100e+01    9.576890e-01
  2.680212e+01    9.219462e-01
  2.691325e+01    9.319293e-01
  2.702438e+01    1.012007e+00
  2.713551e+01    1.435758e+00
  2.724664e+01    2.488906e+00
  2.735777e+01    1.892025e+00
  2.746890e+01    1.133000e+00
  2.758003e+01    9.373435e-01
  2.769116e+01    8.790621e-01
  2.780229e+01    8.443066e-01
  2.791342e+01    8.221282e-01
  2.802454e+01    8.007116e-01
  2.813567e+01    7.950947e-01
  2.824680e+01    7.969771e-01
  2.835793e+01    7.844654e-01
  2.846906e+01    7.939467e-01
  2.858019e+01    8.031196e-01
  2.869132e+01    7.614357e-01
  2.880245e+01    7.769522e-01
  2.891358e+01    7.636414e-01
  2.902471e+01    7.559127e-01
  2.913583e+01    7.568793e-01
  2.924696e+01    7.599128e-01
  2.935809e+01    7.543041e-01
  2.946922e+01    7.322700e-01
  2.958035e+01    7.308610e-01
  2.969148e+01    7.355543e-01
  2.980261e+01    7.138408e-01
  2.991374e+01    7.352479e-01
  3.002487e+01    7.691535e-01
  3.013600e+01    7.600196e-01
  3.024712e+01    7.289544e-01
  3.035825e+01    7.358018e-01
  3.046938e+01    7.207728e-01
  3.058051e+01    7.340075e-01
  3.069164e+01    7.155982e-01
  3.080277e+01    7.340783e-01
  3.091390e+01    7.429722e-01
  3.102503e+01    7.145940e-01
  3.113616e+01    7.372374e-01
  3.124729e+01    7.528692e-01
  3.135841e+01    7.537616e-01
  3.146954e+01    7.621182e-01
  3.158067e+01    8.208517e-01
  3.169180e+01    8.737000e-01
  3.180293e+01    1.170256e+00
  3.191406e+01    2.195663e+00
  3.202519e+01    2.239665e+00
  3.213632e+01    1.155936e+00
  3.224745e+01    9.192572e-01
  3.235858e+01    8.032724e-01
  3.246970e+01    7.603633e-01
  3.254908e+01    7.677528e-01