File: XRD/Activation ramp/2024-07-27_002_Ru-CGO-ex_Activtation_ramp_000002_data_000111.dat
# == pyFAI calibration ==
# Distance Sample to Detector: 0.4 m
# PONI: 9.750e-02, 1.135e-01 m
# Rotations: -0.000175 0.000000 -0.000000 rad
#
# == Fit2d calibration ==
# Distance Sample-beamCenter: 400.000 mm
# Center: x=1514.000, y=1300.000 pix
# Tilt: 0.010 deg  TiltPlanRot: 0.010 deg
#
# Detector Detector	 Spline= None	 PixelSize= 7.500e-05, 7.500e-05 m
#    Detector has a mask: False
#    Detector has a dark current: False
#    detector has a flat field: False
#
# Wavelength: 6.888e-11 m
# Mask applied: user provided
# Dark current applied: False
# Flat field applied: False
# Polarization factor: 0.99
# Normalization factor: 1.0
# --> /home/myspot/data/2024_07_Rosario/Ru-CGO-ex/2024-07-27_002_Ru-CGO-ex_Activtation_ramp_000002_data_000111.dat
#       q_nm^-1             I
  2.003187e-02    0.000000e+00
  1.311609e-01    1.379412e-02
  2.422899e-01    4.232822e-02
  3.534189e-01    1.083992e-02
  4.645479e-01    4.593311e-02
  5.756770e-01    2.499792e-02
  6.868060e-01    3.597925e-02
  7.979350e-01    1.438286e-01
  9.090640e-01    5.746085e-01
  1.020193e+00    1.118607e+00
  1.131322e+00    1.402378e+00
  1.242451e+00    2.149786e+00
  1.353580e+00    2.470740e+00
  1.464709e+00    2.723939e+00
  1.575838e+00    2.783591e+00
  1.686967e+00    2.842619e+00
  1.798096e+00    2.804861e+00
  1.909225e+00    2.763031e+00
  2.020354e+00    2.613256e+00
  2.131483e+00    2.713145e+00
  2.242612e+00    2.530550e+00
  2.353741e+00    2.712819e+00
  2.464870e+00    2.752218e+00
  2.575999e+00    2.784671e+00
  2.687128e+00    2.755969e+00
  2.798257e+00    2.798865e+00
  2.909386e+00    2.798039e+00
  3.020515e+00    2.773806e+00
  3.131644e+00    2.839865e+00
  3.242773e+00    2.908205e+00
  3.353902e+00    2.883927e+00
  3.465031e+00    2.945012e+00
  3.576160e+00    2.844777e+00
  3.687289e+00    2.969470e+00
  3.798418e+00    2.927134e+00
  3.909547e+00    2.914525e+00
  4.020676e+00    2.946841e+00
  4.131806e+00    2.951269e+00
  4.242935e+00    2.956855e+00
  4.354064e+00    2.968281e+00
  4.465193e+00    3.004737e+00
  4.576322e+00    2.989875e+00
  4.687451e+00    3.003847e+00
  4.798580e+00    3.107965e+00
  4.909709e+00    3.087465e+00
  5.020838e+00    3.044423e+00
  5.131967e+00    3.053993e+00
  5.243096e+00    3.104570e+00
  5.354225e+00    2.962314e+00
  5.465354e+00    2.994598e+00
  5.576483e+00    3.066127e+00
  5.687612e+00    2.980384e+00
  5.798741e+00    3.081543e+00
  5.909870e+00    2.924855e+00
  6.020999e+00    2.878277e+00
  6.132128e+00    3.023352e+00
  6.243257e+00    2.984587e+00
  6.354386e+00    3.048443e+00
  6.465515e+00    2.968754e+00
  6.576644e+00    3.035173e+00
  6.687773e+00    3.026711e+00
  6.798902e+00    2.981445e+00
  6.910031e+00    2.906041e+00
  7.021160e+00    2.962140e+00
  7.132289e+00    2.929226e+00
  7.243418e+00    2.945707e+00
  7.354547e+00    2.923882e+00
  7.465676e+00    2.933603e+00
  7.576805e+00    2.894206e+00
  7.687934e+00    2.894523e+00
  7.799063e+00    2.914119e+00
  7.910192e+00    2.926881e+00
  8.021321e+00    2.910499e+00
  8.132450e+00    2.903677e+00
  8.243579e+00    2.884655e+00
  8.354708e+00    2.816016e+00
  8.465837e+00    2.812937e+00
  8.576966e+00    2.819420e+00
  8.688095e+00    2.808752e+00
  8.799224e+00    2.783274e+00
  8.910353e+00    2.807718e+00
  9.021482e+00    2.774298e+00
  9.132611e+00    2.771955e+00
  9.243740e+00    2.799615e+00
  9.354869e+00    2.746099e+00
  9.465998e+00    2.699074e+00
  9.577127e+00    2.714402e+00
  9.688256e+00    2.688523e+00
  9.799385e+00    2.676423e+00
  9.910514e+00    2.650341e+00
  1.002164e+01    2.616424e+00
  1.013277e+01    2.609459e+00
  1.024390e+01    2.604681e+00
  1.035503e+01    2.526416e+00
  1.046616e+01    2.573325e+00
  1.057729e+01    2.520809e+00
  1.068842e+01    2.489054e+00
  1.079955e+01    2.469849e+00
  1.091068e+01    2.477852e+00
  1.102180e+01    2.417391e+00
  1.113293e+01    2.436822e+00
  1.124406e+01    2.459645e+00
  1.135519e+01    2.388968e+00
  1.146632e+01    2.349562e+00
  1.157745e+01    2.400538e+00
  1.168858e+01    2.302882e+00
  1.179971e+01    2.338956e+00
  1.191084e+01    2.312117e+00
  1.202197e+01    2.317680e+00
  1.213309e+01    2.255747e+00
  1.224422e+01    2.253964e+00
  1.235535e+01    2.320603e+00
  1.246648e+01    2.282871e+00
  1.257761e+01    2.352227e+00
  1.268874e+01    2.423537e+00
  1.279987e+01    2.633601e+00
  1.291100e+01    3.218294e+00
  1.302213e+01    5.968349e+00
  1.313326e+01    1.442177e+01
  1.324438e+01    1.251898e+01
  1.335551e+01    4.463192e+00
  1.346664e+01    2.917826e+00
  1.357777e+01    2.455018e+00
  1.368890e+01    2.226142e+00
  1.380003e+01    2.166977e+00
  1.391116e+01    2.075165e+00
  1.402229e+01    2.031034e+00
  1.413342e+01    1.945029e+00
  1.424455e+01    1.966937e+00
  1.435568e+01    1.932949e+00
  1.446680e+01    1.908448e+00
  1.457793e+01    1.903048e+00
  1.468906e+01    1.890933e+00
  1.480019e+01    1.889575e+00
  1.491132e+01    1.900637e+00
  1.502245e+01    2.170913e+00
  1.513358e+01    3.363631e+00
  1.524471e+01    5.764274e+00
  1.535584e+01    4.001726e+00
  1.546697e+01    2.222100e+00
  1.557809e+01    1.898586e+00
  1.568922e+01    1.744426e+00
  1.580035e+01    1.667192e+00
  1.591148e+01    1.598500e+00
  1.602261e+01    1.600862e+00
  1.613374e+01    1.557651e+00
  1.624487e+01    1.522096e+00
  1.635600e+01    1.540873e+00
  1.646713e+01    1.527799e+00
  1.657826e+01    1.481800e+00
  1.668938e+01    1.456082e+00
  1.680051e+01    1.445971e+00
  1.691164e+01    1.432515e+00
  1.702277e+01    1.449120e+00
  1.713390e+01    1.401716e+00
  1.724503e+01    1.363797e+00
  1.735616e+01    1.315965e+00
  1.746729e+01    1.333080e+00
  1.757842e+01    1.361858e+00
  1.768955e+01    1.324139e+00
  1.780067e+01    1.293124e+00
  1.791180e+01    1.287555e+00
  1.802293e+01    1.268988e+00
  1.813406e+01    1.263799e+00
  1.824519e+01    1.255996e+00
  1.835632e+01    1.233989e+00
  1.846745e+01    1.251085e+00
  1.857858e+01    1.234065e+00
  1.868971e+01    1.207184e+00
  1.880084e+01    1.186202e+00
  1.891196e+01    1.178647e+00
  1.902309e+01    1.166727e+00
  1.913422e+01    1.161108e+00
  1.924535e+01    1.174855e+00
  1.935648e+01    1.159682e+00
  1.946761e+01    1.137150e+00
  1.957874e+01    1.147022e+00
  1.968987e+01    1.126211e+00
  1.980100e+01    1.147971e+00
  1.991213e+01    1.106501e+00
  2.002325e+01    1.134488e+00
  2.013438e+01    1.087944e+00
  2.024551e+01    1.119508e+00
  2.035664e+01    1.085462e+00
  2.046777e+01    1.072730e+00
  2.057890e+01    1.064111e+00
  2.069003e+01    1.053675e+00
  2.080116e+01    1.061537e+00
  2.091229e+01    1.065680e+00
  2.102342e+01    1.065763e+00
  2.113455e+01    1.065884e+00
  2.124567e+01    1.086411e+00
  2.135680e+01    1.137554e+00
  2.146793e+01    1.239812e+00
  2.157906e+01    1.406327e+00
  2.169019e+01    2.187769e+00
  2.180132e+01    5.322177e+00
  2.191245e+01    9.605709e+00
  2.202358e+01    4.177435e+00
  2.213471e+01    1.892062e+00
  2.224584e+01    1.320723e+00
  2.235696e+01    1.124769e+00
  2.246809e+01    1.038339e+00
  2.257922e+01    9.895914e-01
  2.269035e+01    9.544560e-01
  2.280148e+01    9.188048e-01
  2.291261e+01    9.160985e-01
  2.302374e+01    8.701971e-01
  2.313487e+01    8.751598e-01
  2.324600e+01    8.664744e-01
  2.335713e+01    8.508652e-01
  2.346825e+01    8.346786e-01
  2.357938e+01    8.367255e-01
  2.369051e+01    8.100312e-01
  2.380164e+01    7.986203e-01
  2.391277e+01    7.823189e-01
  2.402390e+01    7.874261e-01
  2.413503e+01    7.592250e-01
  2.424616e+01    7.561257e-01
  2.435729e+01    7.769509e-01
  2.446842e+01    7.669146e-01
  2.457954e+01    7.771195e-01
  2.469067e+01    7.576881e-01
  2.480180e+01    7.883762e-01
  2.491293e+01    8.059502e-01
  2.502406e+01    8.083344e-01
  2.513519e+01    8.031372e-01
  2.524632e+01    8.321397e-01
  2.535745e+01    8.608822e-01
  2.546858e+01    9.224112e-01
  2.557971e+01    1.072797e+00
  2.569083e+01    1.373710e+00
  2.580196e+01    2.478162e+00
  2.591309e+01    6.104385e+00
  2.602422e+01    6.758599e+00
  2.613535e+01    2.502483e+00
  2.624648e+01    1.388561e+00
  2.635761e+01    1.031610e+00
  2.646874e+01    9.644081e-01
  2.657987e+01    9.021052e-01
  2.669100e+01    8.964891e-01
  2.680212e+01    8.961310e-01
  2.691325e+01    9.236284e-01
  2.702438e+01    1.016735e+00
  2.713551e+01    1.569114e+00
  2.724664e+01    2.323238e+00
  2.735777e+01    1.395319e+00
  2.746890e+01    9.740137e-01
  2.758003e+01    8.702224e-01
  2.769116e+01    8.297327e-01
  2.780229e+01    8.047038e-01
  2.791342e+01    7.954324e-01
  2.802454e+01    7.687274e-01
  2.813567e+01    7.786663e-01
  2.824680e+01    7.635463e-01
  2.835793e+01    7.643303e-01
  2.846906e+01    7.672076e-01
  2.858019e+01    7.675301e-01
  2.869132e+01    7.247454e-01
  2.880245e+01    7.437342e-01
  2.891358e+01    7.274314e-01
  2.902471e+01    7.207077e-01
  2.913583e+01    7.371253e-01
  2.924696e+01    7.149252e-01
  2.935809e+01    7.134833e-01
  2.946922e+01    7.107111e-01
  2.958035e+01    7.222723e-01
  2.969148e+01    7.113206e-01
  2.980261e+01    7.028271e-01
  2.991374e+01    7.042874e-01
  3.002487e+01    7.128782e-01
  3.013600e+01    7.019050e-01
  3.024712e+01    7.196329e-01
  3.035825e+01    7.082201e-01
  3.046938e+01    7.007145e-01
  3.058051e+01    7.181771e-01
  3.069164e+01    7.053545e-01
  3.080277e+01    6.873072e-01
  3.091390e+01    7.265491e-01
  3.102503e+01    7.048479e-01
  3.113616e+01    7.187867e-01
  3.124729e+01    7.192950e-01
  3.135841e+01    7.191375e-01
  3.146954e+01    7.472451e-01
  3.158067e+01    7.845730e-01
  3.169180e+01    9.056604e-01
  3.180293e+01    1.301859e+00
  3.191406e+01    2.269638e+00
  3.202519e+01    1.535980e+00
  3.213632e+01    9.346004e-01
  3.224745e+01    8.082994e-01
  3.235858e+01    7.400660e-01
  3.246970e+01    7.008365e-01
  3.254908e+01    6.944703e-01