File: XRD/Activation ramp/2024-07-27_002_Ru-CGO-ex_Activtation_ramp_000002_data_000035.dat
# == pyFAI calibration ==
# Distance Sample to Detector: 0.4 m
# PONI: 9.750e-02, 1.135e-01 m
# Rotations: -0.000175 0.000000 -0.000000 rad
#
# == Fit2d calibration ==
# Distance Sample-beamCenter: 400.000 mm
# Center: x=1514.000, y=1300.000 pix
# Tilt: 0.010 deg  TiltPlanRot: 0.010 deg
#
# Detector Detector	 Spline= None	 PixelSize= 7.500e-05, 7.500e-05 m
#    Detector has a mask: False
#    Detector has a dark current: False
#    detector has a flat field: False
#
# Wavelength: 6.888e-11 m
# Mask applied: user provided
# Dark current applied: False
# Flat field applied: False
# Polarization factor: 0.99
# Normalization factor: 1.0
# --> /home/myspot/data/2024_07_Rosario/Ru-CGO-ex/2024-07-27_002_Ru-CGO-ex_Activtation_ramp_000002_data_000035.dat
#       q_nm^-1             I
  2.003187e-02    0.000000e+00
  1.311609e-01    9.859085e-02
  2.422899e-01    3.212946e-02
  3.534189e-01    3.642720e-02
  4.645479e-01    7.006526e-02
  5.756770e-01    4.885528e-02
  6.868060e-01    3.597782e-02
  7.979350e-01    1.613913e-01
  9.090640e-01    5.558158e-01
  1.020193e+00    1.118981e+00
  1.131322e+00    1.492923e+00
  1.242451e+00    2.356477e+00
  1.353580e+00    2.539403e+00
  1.464709e+00    2.923819e+00
  1.575838e+00    3.038427e+00
  1.686967e+00    2.885119e+00
  1.798096e+00    2.902511e+00
  1.909225e+00    2.793517e+00
  2.020354e+00    2.745857e+00
  2.131483e+00    2.719839e+00
  2.242612e+00    2.892637e+00
  2.353741e+00    2.747329e+00
  2.464870e+00    2.885278e+00
  2.575999e+00    2.822637e+00
  2.687128e+00    2.824802e+00
  2.798257e+00    2.899994e+00
  2.909386e+00    2.856380e+00
  3.020515e+00    2.857510e+00
  3.131644e+00    2.916798e+00
  3.242773e+00    2.870399e+00
  3.353902e+00    2.958536e+00
  3.465031e+00    2.928913e+00
  3.576160e+00    3.047422e+00
  3.687289e+00    3.004315e+00
  3.798418e+00    3.008549e+00
  3.909547e+00    2.955724e+00
  4.020676e+00    3.030251e+00
  4.131806e+00    3.069809e+00
  4.242935e+00    3.073657e+00
  4.354064e+00    3.139001e+00
  4.465193e+00    3.072536e+00
  4.576322e+00    3.039829e+00
  4.687451e+00    3.117615e+00
  4.798580e+00    3.175521e+00
  4.909709e+00    3.208279e+00
  5.020838e+00    3.166475e+00
  5.131967e+00    3.041515e+00
  5.243096e+00    3.117354e+00
  5.354225e+00    3.091887e+00
  5.465354e+00    3.075198e+00
  5.576483e+00    3.069323e+00
  5.687612e+00    3.078186e+00
  5.798741e+00    3.053796e+00
  5.909870e+00    3.012780e+00
  6.020999e+00    2.992450e+00
  6.132128e+00    3.079215e+00
  6.243257e+00    3.104415e+00
  6.354386e+00    3.058260e+00
  6.465515e+00    3.055049e+00
  6.576644e+00    3.095515e+00
  6.687773e+00    3.016032e+00
  6.798902e+00    3.050210e+00
  6.910031e+00    2.973258e+00
  7.021160e+00    3.044307e+00
  7.132289e+00    3.043004e+00
  7.243418e+00    3.090387e+00
  7.354547e+00    3.049326e+00
  7.465676e+00    2.955008e+00
  7.576805e+00    2.952825e+00
  7.687934e+00    2.914480e+00
  7.799063e+00    2.937385e+00
  7.910192e+00    2.950239e+00
  8.021321e+00    2.887012e+00
  8.132450e+00    2.922894e+00
  8.243579e+00    3.000093e+00
  8.354708e+00    2.920921e+00
  8.465837e+00    2.891619e+00
  8.576966e+00    2.864657e+00
  8.688095e+00    2.932146e+00
  8.799224e+00    2.828326e+00
  8.910353e+00    2.856729e+00
  9.021482e+00    2.783821e+00
  9.132611e+00    2.812250e+00
  9.243740e+00    2.778947e+00
  9.354869e+00    2.859765e+00
  9.465998e+00    2.720958e+00
  9.577127e+00    2.785829e+00
  9.688256e+00    2.770589e+00
  9.799385e+00    2.727245e+00
  9.910514e+00    2.695872e+00
  1.002164e+01    2.645166e+00
  1.013277e+01    2.696900e+00
  1.024390e+01    2.659757e+00
  1.035503e+01    2.657755e+00
  1.046616e+01    2.621733e+00
  1.057729e+01    2.561744e+00
  1.068842e+01    2.592910e+00
  1.079955e+01    2.539069e+00
  1.091068e+01    2.497221e+00
  1.102180e+01    2.537800e+00
  1.113293e+01    2.484061e+00
  1.124406e+01    2.450767e+00
  1.135519e+01    2.450642e+00
  1.146632e+01    2.440363e+00
  1.157745e+01    2.372946e+00
  1.168858e+01    2.433542e+00
  1.179971e+01    2.356398e+00
  1.191084e+01    2.333912e+00
  1.202197e+01    2.366542e+00
  1.213309e+01    2.344183e+00
  1.224422e+01    2.280201e+00
  1.235535e+01    2.398469e+00
  1.246648e+01    2.361592e+00
  1.257761e+01    2.347139e+00
  1.268874e+01    2.523078e+00
  1.279987e+01    2.713094e+00
  1.291100e+01    3.308223e+00
  1.302213e+01    5.895264e+00
  1.313326e+01    1.515590e+01
  1.324438e+01    1.582474e+01
  1.335551e+01    5.297230e+00
  1.346664e+01    3.140059e+00
  1.357777e+01    2.589133e+00
  1.368890e+01    2.352226e+00
  1.380003e+01    2.166067e+00
  1.391116e+01    2.135945e+00
  1.402229e+01    2.069306e+00
  1.413342e+01    1.990487e+00
  1.424455e+01    2.032720e+00
  1.435568e+01    1.989727e+00
  1.446680e+01    1.941790e+00
  1.457793e+01    1.953053e+00
  1.468906e+01    1.952470e+00
  1.480019e+01    1.903531e+00
  1.491132e+01    1.970495e+00
  1.502245e+01    2.193838e+00
  1.513358e+01    3.280996e+00
  1.524471e+01    5.977480e+00
  1.535584e+01    4.820622e+00
  1.546697e+01    2.426605e+00
  1.557809e+01    1.983892e+00
  1.568922e+01    1.796670e+00
  1.580035e+01    1.725514e+00
  1.591148e+01    1.656426e+00
  1.602261e+01    1.658404e+00
  1.613374e+01    1.595018e+00
  1.624487e+01    1.574751e+00
  1.635600e+01    1.553972e+00
  1.646713e+01    1.567143e+00
  1.657826e+01    1.560035e+00
  1.668938e+01    1.492330e+00
  1.680051e+01    1.469446e+00
  1.691164e+01    1.439526e+00
  1.702277e+01    1.424003e+00
  1.713390e+01    1.421004e+00
  1.724503e+01    1.423055e+00
  1.735616e+01    1.400709e+00
  1.746729e+01    1.397379e+00
  1.757842e+01    1.360597e+00
  1.768955e+01    1.369017e+00
  1.780067e+01    1.331805e+00
  1.791180e+01    1.343991e+00
  1.802293e+01    1.322071e+00
  1.813406e+01    1.302014e+00
  1.824519e+01    1.287158e+00
  1.835632e+01    1.271542e+00
  1.846745e+01    1.253076e+00
  1.857858e+01    1.276801e+00
  1.868971e+01    1.217101e+00
  1.880084e+01    1.250852e+00
  1.891196e+01    1.247223e+00
  1.902309e+01    1.199622e+00
  1.913422e+01    1.225511e+00
  1.924535e+01    1.190232e+00
  1.935648e+01    1.184647e+00
  1.946761e+01    1.197591e+00
  1.957874e+01    1.149097e+00
  1.968987e+01    1.177047e+00
  1.980100e+01    1.153537e+00
  1.991213e+01    1.147968e+00
  2.002325e+01    1.121964e+00
  2.013438e+01    1.132346e+00
  2.024551e+01    1.110011e+00
  2.035664e+01    1.117507e+00
  2.046777e+01    1.115250e+00
  2.057890e+01    1.092786e+00
  2.069003e+01    1.089995e+00
  2.080116e+01    1.097939e+00
  2.091229e+01    1.089257e+00
  2.102342e+01    1.112475e+00
  2.113455e+01    1.114497e+00
  2.124567e+01    1.099818e+00
  2.135680e+01    1.158623e+00
  2.146793e+01    1.241980e+00
  2.157906e+01    1.442994e+00
  2.169019e+01    2.180419e+00
  2.180132e+01    4.974942e+00
  2.191245e+01    1.053677e+01
  2.202358e+01    5.725834e+00
  2.213471e+01    2.267673e+00
  2.224584e+01    1.473271e+00
  2.235696e+01    1.208374e+00
  2.246809e+01    1.079516e+00
  2.257922e+01    1.013859e+00
  2.269035e+01    9.838610e-01
  2.280148e+01    9.508125e-01
  2.291261e+01    9.331145e-01
  2.302374e+01    9.123305e-01
  2.313487e+01    9.019563e-01
  2.324600e+01    9.024556e-01
  2.335713e+01    8.793783e-01
  2.346825e+01    8.645115e-01
  2.357938e+01    8.618458e-01
  2.369051e+01    8.632259e-01
  2.380164e+01    8.174013e-01
  2.391277e+01    8.286132e-01
  2.402390e+01    8.160164e-01
  2.413503e+01    7.997942e-01
  2.424616e+01    8.066149e-01
  2.435729e+01    7.885144e-01
  2.446842e+01    8.076547e-01
  2.457954e+01    8.122031e-01
  2.469067e+01    7.879047e-01
  2.480180e+01    7.872975e-01
  2.491293e+01    8.026627e-01
  2.502406e+01    8.240604e-01
  2.513519e+01    8.421202e-01
  2.524632e+01    8.522252e-01
  2.535745e+01    8.804908e-01
  2.546858e+01    9.511536e-01
  2.557971e+01    1.062173e+00
  2.569083e+01    1.346381e+00
  2.580196e+01    2.281842e+00
  2.591309e+01    5.698280e+00
  2.602422e+01    8.661695e+00
  2.613535e+01    3.388433e+00
  2.624648e+01    1.649716e+00
  2.635761e+01    1.155666e+00
  2.646874e+01    1.053418e+00
  2.657987e+01    9.812388e-01
  2.669100e+01    9.276230e-01
  2.680212e+01    9.214292e-01
  2.691325e+01    9.369804e-01
  2.702438e+01    1.027701e+00
  2.713551e+01    1.484064e+00
  2.724664e+01    2.568498e+00
  2.735777e+01    1.704849e+00
  2.746890e+01    1.089277e+00
  2.758003e+01    9.383536e-01
  2.769116e+01    8.650640e-01
  2.780229e+01    8.297062e-01
  2.791342e+01    8.259040e-01
  2.802454e+01    8.036500e-01
  2.813567e+01    7.978562e-01
  2.824680e+01    7.941139e-01
  2.835793e+01    7.538093e-01
  2.846906e+01    7.666194e-01
  2.858019e+01    7.685162e-01
  2.869132e+01    7.792216e-01
  2.880245e+01    7.725956e-01
  2.891358e+01    7.497733e-01
  2.902471e+01    7.561699e-01
  2.913583e+01    7.369006e-01
  2.924696e+01    7.590814e-01
  2.935809e+01    7.322440e-01
  2.946922e+01    7.423493e-01
  2.958035e+01    7.394724e-01
  2.969148e+01    7.451932e-01
  2.980261e+01    7.388077e-01
  2.991374e+01    7.456599e-01
  3.002487e+01    7.469418e-01
  3.013600e+01    7.470100e-01
  3.024712e+01    7.335063e-01
  3.035825e+01    7.115327e-01
  3.046938e+01    7.315788e-01
  3.058051e+01    7.069033e-01
  3.069164e+01    7.286147e-01
  3.080277e+01    7.247134e-01
  3.091390e+01    7.301707e-01
  3.102503e+01    7.130005e-01
  3.113616e+01    7.154089e-01
  3.124729e+01    7.452880e-01
  3.135841e+01    7.503999e-01
  3.146954e+01    7.963127e-01
  3.158067e+01    8.241113e-01
  3.169180e+01    9.086707e-01
  3.180293e+01    1.210208e+00
  3.191406e+01    2.272269e+00
  3.202519e+01    2.046529e+00
  3.213632e+01    1.101403e+00
  3.224745e+01    8.154538e-01
  3.235858e+01    7.653636e-01
  3.246970e+01    7.470041e-01
  3.254908e+01    7.565798e-01