File: XRD/Activation ramp/2024-07-27_002_Ru-CGO-ex_Activtation_ramp_000002_data_000056.dat
# == pyFAI calibration ==
# Distance Sample to Detector: 0.4 m
# PONI: 9.750e-02, 1.135e-01 m
# Rotations: -0.000175 0.000000 -0.000000 rad
#
# == Fit2d calibration ==
# Distance Sample-beamCenter: 400.000 mm
# Center: x=1514.000, y=1300.000 pix
# Tilt: 0.010 deg  TiltPlanRot: 0.010 deg
#
# Detector Detector	 Spline= None	 PixelSize= 7.500e-05, 7.500e-05 m
#    Detector has a mask: False
#    Detector has a dark current: False
#    detector has a flat field: False
#
# Wavelength: 6.888e-11 m
# Mask applied: user provided
# Dark current applied: False
# Flat field applied: False
# Polarization factor: 0.99
# Normalization factor: 1.0
# --> /home/myspot/data/2024_07_Rosario/Ru-CGO-ex/2024-07-27_002_Ru-CGO-ex_Activtation_ramp_000002_data_000056.dat
#       q_nm^-1             I
  2.003187e-02    2.226973e-02
  1.311609e-01    4.771272e-02
  2.422899e-01    2.013612e-02
  3.534189e-01    2.733433e-02
  4.645479e-01    4.246541e-02
  5.756770e-01    2.243927e-02
  6.868060e-01    4.599611e-02
  7.979350e-01    1.396109e-01
  9.090640e-01    5.642187e-01
  1.020193e+00    1.213228e+00
  1.131322e+00    1.368865e+00
  1.242451e+00    2.200014e+00
  1.353580e+00    2.714711e+00
  1.464709e+00    2.741348e+00
  1.575838e+00    2.902527e+00
  1.686967e+00    2.908999e+00
  1.798096e+00    2.919029e+00
  1.909225e+00    2.842767e+00
  2.020354e+00    2.782564e+00
  2.131483e+00    2.764513e+00
  2.242612e+00    2.742009e+00
  2.353741e+00    2.871261e+00
  2.464870e+00    2.900103e+00
  2.575999e+00    2.820263e+00
  2.687128e+00    2.747496e+00
  2.798257e+00    2.839987e+00
  2.909386e+00    2.858797e+00
  3.020515e+00    2.837937e+00
  3.131644e+00    3.055001e+00
  3.242773e+00    2.845736e+00
  3.353902e+00    3.029839e+00
  3.465031e+00    3.023113e+00
  3.576160e+00    3.029063e+00
  3.687289e+00    2.960123e+00
  3.798418e+00    2.981917e+00
  3.909547e+00    2.967912e+00
  4.020676e+00    2.972425e+00
  4.131806e+00    3.033072e+00
  4.242935e+00    3.030413e+00
  4.354064e+00    3.063656e+00
  4.465193e+00    3.101981e+00
  4.576322e+00    3.105511e+00
  4.687451e+00    3.140428e+00
  4.798580e+00    3.128350e+00
  4.909709e+00    3.103602e+00
  5.020838e+00    3.090502e+00
  5.131967e+00    3.031712e+00
  5.243096e+00    3.199678e+00
  5.354225e+00    3.125811e+00
  5.465354e+00    3.127825e+00
  5.576483e+00    3.016936e+00
  5.687612e+00    3.063423e+00
  5.798741e+00    3.140852e+00
  5.909870e+00    3.024010e+00
  6.020999e+00    3.067548e+00
  6.132128e+00    3.063098e+00
  6.243257e+00    3.107937e+00
  6.354386e+00    3.025156e+00
  6.465515e+00    3.066316e+00
  6.576644e+00    3.072932e+00
  6.687773e+00    2.977029e+00
  6.798902e+00    3.043549e+00
  6.910031e+00    2.946565e+00
  7.021160e+00    2.978965e+00
  7.132289e+00    3.063240e+00
  7.243418e+00    3.082274e+00
  7.354547e+00    2.970574e+00
  7.465676e+00    2.947599e+00
  7.576805e+00    2.923715e+00
  7.687934e+00    2.961212e+00
  7.799063e+00    3.023111e+00
  7.910192e+00    2.920746e+00
  8.021321e+00    2.963747e+00
  8.132450e+00    2.992988e+00
  8.243579e+00    2.973621e+00
  8.354708e+00    2.919758e+00
  8.465837e+00    2.870152e+00
  8.576966e+00    2.814646e+00
  8.688095e+00    2.803574e+00
  8.799224e+00    2.927133e+00
  8.910353e+00    2.873460e+00
  9.021482e+00    2.838093e+00
  9.132611e+00    2.835405e+00
  9.243740e+00    2.792054e+00
  9.354869e+00    2.743920e+00
  9.465998e+00    2.804080e+00
  9.577127e+00    2.773733e+00
  9.688256e+00    2.737194e+00
  9.799385e+00    2.769534e+00
  9.910514e+00    2.717952e+00
  1.002164e+01    2.669658e+00
  1.013277e+01    2.649983e+00
  1.024390e+01    2.662801e+00
  1.035503e+01    2.641131e+00
  1.046616e+01    2.618355e+00
  1.057729e+01    2.595378e+00
  1.068842e+01    2.602926e+00
  1.079955e+01    2.556233e+00
  1.091068e+01    2.476579e+00
  1.102180e+01    2.550487e+00
  1.113293e+01    2.487249e+00
  1.124406e+01    2.466953e+00
  1.135519e+01    2.420026e+00
  1.146632e+01    2.438620e+00
  1.157745e+01    2.412895e+00
  1.168858e+01    2.399416e+00
  1.179971e+01    2.392507e+00
  1.191084e+01    2.348132e+00
  1.202197e+01    2.342833e+00
  1.213309e+01    2.339993e+00
  1.224422e+01    2.297050e+00
  1.235535e+01    2.437026e+00
  1.246648e+01    2.370741e+00
  1.257761e+01    2.386468e+00
  1.268874e+01    2.487759e+00
  1.279987e+01    2.693223e+00
  1.291100e+01    3.269204e+00
  1.302213e+01    5.942728e+00
  1.313326e+01    1.509771e+01
  1.324438e+01    1.479386e+01
  1.335551e+01    5.100541e+00
  1.346664e+01    3.085114e+00
  1.357777e+01    2.540590e+00
  1.368890e+01    2.318075e+00
  1.380003e+01    2.179368e+00
  1.391116e+01    2.155491e+00
  1.402229e+01    2.047795e+00
  1.413342e+01    2.025498e+00
  1.424455e+01    1.998178e+00
  1.435568e+01    1.969892e+00
  1.446680e+01    1.981172e+00
  1.457793e+01    1.927815e+00
  1.468906e+01    1.921908e+00
  1.480019e+01    1.956007e+00
  1.491132e+01    1.996623e+00
  1.502245e+01    2.225310e+00
  1.513358e+01    3.289944e+00
  1.524471e+01    5.909745e+00
  1.535584e+01    4.668632e+00
  1.546697e+01    2.415441e+00
  1.557809e+01    1.943874e+00
  1.568922e+01    1.784009e+00
  1.580035e+01    1.720324e+00
  1.591148e+01    1.669119e+00
  1.602261e+01    1.656851e+00
  1.613374e+01    1.616322e+00
  1.624487e+01    1.534810e+00
  1.635600e+01    1.566576e+00
  1.646713e+01    1.514436e+00
  1.657826e+01    1.462980e+00
  1.668938e+01    1.497536e+00
  1.680051e+01    1.479906e+00
  1.691164e+01    1.473053e+00
  1.702277e+01    1.423813e+00
  1.713390e+01    1.430407e+00
  1.724503e+01    1.423587e+00
  1.735616e+01    1.392436e+00
  1.746729e+01    1.392928e+00
  1.757842e+01    1.362069e+00
  1.768955e+01    1.352068e+00
  1.780067e+01    1.345597e+00
  1.791180e+01    1.338977e+00
  1.802293e+01    1.318324e+00
  1.813406e+01    1.297002e+00
  1.824519e+01    1.288859e+00
  1.835632e+01    1.272488e+00
  1.846745e+01    1.278057e+00
  1.857858e+01    1.251753e+00
  1.868971e+01    1.245118e+00
  1.880084e+01    1.223029e+00
  1.891196e+01    1.202895e+00
  1.902309e+01    1.209373e+00
  1.913422e+01    1.219151e+00
  1.924535e+01    1.183293e+00
  1.935648e+01    1.211161e+00
  1.946761e+01    1.173807e+00
  1.957874e+01    1.157361e+00
  1.968987e+01    1.127196e+00
  1.980100e+01    1.144711e+00
  1.991213e+01    1.132317e+00
  2.002325e+01    1.132292e+00
  2.013438e+01    1.109310e+00
  2.024551e+01    1.106591e+00
  2.035664e+01    1.110134e+00
  2.046777e+01    1.089900e+00
  2.057890e+01    1.086645e+00
  2.069003e+01    1.097594e+00
  2.080116e+01    1.081532e+00
  2.091229e+01    1.097870e+00
  2.102342e+01    1.072684e+00
  2.113455e+01    1.084831e+00
  2.124567e+01    1.107049e+00
  2.135680e+01    1.171708e+00
  2.146793e+01    1.243288e+00
  2.157906e+01    1.454454e+00
  2.169019e+01    2.148973e+00
  2.180132e+01    5.084577e+00
  2.191245e+01    1.045043e+01
  2.202358e+01    5.301342e+00
  2.213471e+01    2.173137e+00
  2.224584e+01    1.411946e+00
  2.235696e+01    1.188977e+00
  2.246809e+01    1.089307e+00
  2.257922e+01    1.021143e+00
  2.269035e+01    9.938631e-01
  2.280148e+01    9.577074e-01
  2.291261e+01    9.340826e-01
  2.302374e+01    9.054217e-01
  2.313487e+01    9.004530e-01
  2.324600e+01    8.804175e-01
  2.335713e+01    8.628950e-01
  2.346825e+01    8.663740e-01
  2.357938e+01    8.624060e-01
  2.369051e+01    8.405107e-01
  2.380164e+01    8.119294e-01
  2.391277e+01    8.223037e-01
  2.402390e+01    7.931377e-01
  2.413503e+01    8.015938e-01
  2.424616e+01    7.815332e-01
  2.435729e+01    8.131380e-01
  2.446842e+01    7.998978e-01
  2.457954e+01    7.958415e-01
  2.469067e+01    8.116204e-01
  2.480180e+01    8.015193e-01
  2.491293e+01    8.136818e-01
  2.502406e+01    8.088129e-01
  2.513519e+01    8.188789e-01
  2.524632e+01    8.689252e-01
  2.535745e+01    8.910286e-01
  2.546858e+01    9.539452e-01
  2.557971e+01    1.087991e+00
  2.569083e+01    1.345839e+00
  2.580196e+01    2.287403e+00
  2.591309e+01    5.835760e+00
  2.602422e+01    8.197105e+00
  2.613535e+01    3.100038e+00
  2.624648e+01    1.555261e+00
  2.635761e+01    1.134915e+00
  2.646874e+01    1.002712e+00
  2.657987e+01    9.526691e-01
  2.669100e+01    9.423485e-01
  2.680212e+01    9.181443e-01
  2.691325e+01    9.457461e-01
  2.702438e+01    1.045008e+00
  2.713551e+01    1.519898e+00
  2.724664e+01    2.495047e+00
  2.735777e+01    1.624690e+00
  2.746890e+01    1.082538e+00
  2.758003e+01    9.072486e-01
  2.769116e+01    8.649464e-01
  2.780229e+01    8.508178e-01
  2.791342e+01    8.481167e-01
  2.802454e+01    8.120197e-01
  2.813567e+01    7.928147e-01
  2.824680e+01    7.910363e-01
  2.835793e+01    7.916195e-01
  2.846906e+01    7.824185e-01
  2.858019e+01    7.628846e-01
  2.869132e+01    7.563787e-01
  2.880245e+01    7.567927e-01
  2.891358e+01    7.603213e-01
  2.902471e+01    7.304275e-01
  2.913583e+01    7.429687e-01
  2.924696e+01    7.399746e-01
  2.935809e+01    7.633108e-01
  2.946922e+01    7.183440e-01
  2.958035e+01    7.433681e-01
  2.969148e+01    7.120597e-01
  2.980261e+01    7.320935e-01
  2.991374e+01    7.352009e-01
  3.002487e+01    7.271423e-01
  3.013600e+01    7.367806e-01
  3.024712e+01    7.216631e-01
  3.035825e+01    7.261934e-01
  3.046938e+01    7.165720e-01
  3.058051e+01    7.205260e-01
  3.069164e+01    6.956737e-01
  3.080277e+01    7.073085e-01
  3.091390e+01    7.254400e-01
  3.102503e+01    7.226763e-01
  3.113616e+01    7.120823e-01
  3.124729e+01    7.400337e-01
  3.135841e+01    7.507288e-01
  3.146954e+01    7.466531e-01
  3.158067e+01    8.063894e-01
  3.169180e+01    8.874049e-01
  3.180293e+01    1.222716e+00
  3.191406e+01    2.311574e+00
  3.202519e+01    1.930987e+00
  3.213632e+01    1.052686e+00
  3.224745e+01    8.483889e-01
  3.235858e+01    7.642745e-01
  3.246970e+01    7.404607e-01
  3.254908e+01    7.275703e-01