File: XRD/Activation ramp/2024-07-27_002_Ru-CGO-ex_Activtation_ramp_000002_data_000083.dat
# == pyFAI calibration ==
# Distance Sample to Detector: 0.4 m
# PONI: 9.750e-02, 1.135e-01 m
# Rotations: -0.000175 0.000000 -0.000000 rad
#
# == Fit2d calibration ==
# Distance Sample-beamCenter: 400.000 mm
# Center: x=1514.000, y=1300.000 pix
# Tilt: 0.010 deg  TiltPlanRot: 0.010 deg
#
# Detector Detector	 Spline= None	 PixelSize= 7.500e-05, 7.500e-05 m
#    Detector has a mask: False
#    Detector has a dark current: False
#    detector has a flat field: False
#
# Wavelength: 6.888e-11 m
# Mask applied: user provided
# Dark current applied: False
# Flat field applied: False
# Polarization factor: 0.99
# Normalization factor: 1.0
# --> /home/myspot/data/2024_07_Rosario/Ru-CGO-ex/2024-07-27_002_Ru-CGO-ex_Activtation_ramp_000002_data_000083.dat
#       q_nm^-1             I
  2.003187e-02    1.542397e-01
  1.311609e-01    9.971549e-02
  2.422899e-01    5.232165e-02
  3.534189e-01    1.890371e-02
  4.645479e-01    7.570352e-02
  5.756770e-01    7.609896e-02
  6.868060e-01    3.735994e-02
  7.979350e-01    1.191940e-01
  9.090640e-01    4.974098e-01
  1.020193e+00    1.034061e+00
  1.131322e+00    1.349344e+00
  1.242451e+00    2.149780e+00
  1.353580e+00    2.609610e+00
  1.464709e+00    2.837656e+00
  1.575838e+00    2.991790e+00
  1.686967e+00    2.851718e+00
  1.798096e+00    2.856886e+00
  1.909225e+00    2.711257e+00
  2.020354e+00    2.767434e+00
  2.131483e+00    2.797885e+00
  2.242612e+00    2.765624e+00
  2.353741e+00    2.776021e+00
  2.464870e+00    2.786880e+00
  2.575999e+00    2.733341e+00
  2.687128e+00    2.778020e+00
  2.798257e+00    2.794063e+00
  2.909386e+00    2.767591e+00
  3.020515e+00    2.781988e+00
  3.131644e+00    2.775295e+00
  3.242773e+00    2.894372e+00
  3.353902e+00    2.925983e+00
  3.465031e+00    2.876723e+00
  3.576160e+00    2.942706e+00
  3.687289e+00    3.005952e+00
  3.798418e+00    2.960169e+00
  3.909547e+00    2.988474e+00
  4.020676e+00    2.996731e+00
  4.131806e+00    2.979982e+00
  4.242935e+00    3.007708e+00
  4.354064e+00    3.012770e+00
  4.465193e+00    3.030249e+00
  4.576322e+00    3.126177e+00
  4.687451e+00    3.036965e+00
  4.798580e+00    3.088191e+00
  4.909709e+00    3.060262e+00
  5.020838e+00    3.083610e+00
  5.131967e+00    3.054532e+00
  5.243096e+00    3.055051e+00
  5.354225e+00    3.131004e+00
  5.465354e+00    3.068996e+00
  5.576483e+00    3.067351e+00
  5.687612e+00    2.942038e+00
  5.798741e+00    3.074085e+00
  5.909870e+00    3.019886e+00
  6.020999e+00    2.984282e+00
  6.132128e+00    3.042468e+00
  6.243257e+00    3.058135e+00
  6.354386e+00    2.961709e+00
  6.465515e+00    3.041979e+00
  6.576644e+00    2.965629e+00
  6.687773e+00    2.962356e+00
  6.798902e+00    3.070410e+00
  6.910031e+00    2.946050e+00
  7.021160e+00    2.967382e+00
  7.132289e+00    2.975732e+00
  7.243418e+00    2.924941e+00
  7.354547e+00    2.939867e+00
  7.465676e+00    2.968704e+00
  7.576805e+00    2.942318e+00
  7.687934e+00    2.895659e+00
  7.799063e+00    2.934258e+00
  7.910192e+00    2.906122e+00
  8.021321e+00    2.878213e+00
  8.132450e+00    2.909491e+00
  8.243579e+00    2.926248e+00
  8.354708e+00    2.890481e+00
  8.465837e+00    2.836895e+00
  8.576966e+00    2.831452e+00
  8.688095e+00    2.815664e+00
  8.799224e+00    2.829510e+00
  8.910353e+00    2.830153e+00
  9.021482e+00    2.764715e+00
  9.132611e+00    2.821341e+00
  9.243740e+00    2.748218e+00
  9.354869e+00    2.763423e+00
  9.465998e+00    2.720114e+00
  9.577127e+00    2.710258e+00
  9.688256e+00    2.707104e+00
  9.799385e+00    2.721116e+00
  9.910514e+00    2.686397e+00
  1.002164e+01    2.617387e+00
  1.013277e+01    2.600060e+00
  1.024390e+01    2.589700e+00
  1.035503e+01    2.571564e+00
  1.046616e+01    2.571603e+00
  1.057729e+01    2.559389e+00
  1.068842e+01    2.492836e+00
  1.079955e+01    2.495414e+00
  1.091068e+01    2.521803e+00
  1.102180e+01    2.449149e+00
  1.113293e+01    2.446635e+00
  1.124406e+01    2.445442e+00
  1.135519e+01    2.379569e+00
  1.146632e+01    2.378612e+00
  1.157745e+01    2.397401e+00
  1.168858e+01    2.378230e+00
  1.179971e+01    2.303191e+00
  1.191084e+01    2.345370e+00
  1.202197e+01    2.275484e+00
  1.213309e+01    2.304951e+00
  1.224422e+01    2.266255e+00
  1.235535e+01    2.352201e+00
  1.246648e+01    2.310004e+00
  1.257761e+01    2.323945e+00
  1.268874e+01    2.434140e+00
  1.279987e+01    2.586424e+00
  1.291100e+01    3.265332e+00
  1.302213e+01    5.949214e+00
  1.313326e+01    1.480766e+01
  1.324438e+01    1.383208e+01
  1.335551e+01    4.789393e+00
  1.346664e+01    2.961400e+00
  1.357777e+01    2.494534e+00
  1.368890e+01    2.270447e+00
  1.380003e+01    2.137193e+00
  1.391116e+01    2.106387e+00
  1.402229e+01    2.014887e+00
  1.413342e+01    1.979500e+00
  1.424455e+01    1.969763e+00
  1.435568e+01    1.939894e+00
  1.446680e+01    1.919979e+00
  1.457793e+01    1.926383e+00
  1.468906e+01    1.877910e+00
  1.480019e+01    1.892360e+00
  1.491132e+01    1.964301e+00
  1.502245e+01    2.176693e+00
  1.513358e+01    3.338871e+00
  1.524471e+01    5.875834e+00
  1.535584e+01    4.322600e+00
  1.546697e+01    2.300013e+00
  1.557809e+01    1.897527e+00
  1.568922e+01    1.756898e+00
  1.580035e+01    1.668213e+00
  1.591148e+01    1.638471e+00
  1.602261e+01    1.606450e+00
  1.613374e+01    1.603149e+00
  1.624487e+01    1.524397e+00
  1.635600e+01    1.534230e+00
  1.646713e+01    1.501133e+00
  1.657826e+01    1.493526e+00
  1.668938e+01    1.452187e+00
  1.680051e+01    1.421958e+00
  1.691164e+01    1.443433e+00
  1.702277e+01    1.424351e+00
  1.713390e+01    1.381536e+00
  1.724503e+01    1.404363e+00
  1.735616e+01    1.358976e+00
  1.746729e+01    1.381679e+00
  1.757842e+01    1.340720e+00
  1.768955e+01    1.283925e+00
  1.780067e+01    1.329207e+00
  1.791180e+01    1.315012e+00
  1.802293e+01    1.302127e+00
  1.813406e+01    1.292946e+00
  1.824519e+01    1.241592e+00
  1.835632e+01    1.265284e+00
  1.846745e+01    1.241772e+00
  1.857858e+01    1.203562e+00
  1.868971e+01    1.212896e+00
  1.880084e+01    1.204588e+00
  1.891196e+01    1.204002e+00
  1.902309e+01    1.193644e+00
  1.913422e+01    1.173835e+00
  1.924535e+01    1.132969e+00
  1.935648e+01    1.188355e+00
  1.946761e+01    1.136466e+00
  1.957874e+01    1.174039e+00
  1.968987e+01    1.132352e+00
  1.980100e+01    1.107210e+00
  1.991213e+01    1.140468e+00
  2.002325e+01    1.094648e+00
  2.013438e+01    1.105369e+00
  2.024551e+01    1.081025e+00
  2.035664e+01    1.083752e+00
  2.046777e+01    1.086524e+00
  2.057890e+01    1.053653e+00
  2.069003e+01    1.065137e+00
  2.080116e+01    1.070972e+00
  2.091229e+01    1.090618e+00
  2.102342e+01    1.063536e+00
  2.113455e+01    1.102455e+00
  2.124567e+01    1.069714e+00
  2.135680e+01    1.123978e+00
  2.146793e+01    1.240777e+00
  2.157906e+01    1.439325e+00
  2.169019e+01    2.170358e+00
  2.180132e+01    5.176438e+00
  2.191245e+01    1.009518e+01
  2.202358e+01    4.830027e+00
  2.213471e+01    1.998393e+00
  2.224584e+01    1.361604e+00
  2.235696e+01    1.166633e+00
  2.246809e+01    1.027698e+00
  2.257922e+01    1.013418e+00
  2.269035e+01    9.872589e-01
  2.280148e+01    9.343556e-01
  2.291261e+01    9.057120e-01
  2.302374e+01    8.972783e-01
  2.313487e+01    8.631806e-01
  2.324600e+01    8.909760e-01
  2.335713e+01    8.544362e-01
  2.346825e+01    8.577419e-01
  2.357938e+01    8.506595e-01
  2.369051e+01    8.196957e-01
  2.380164e+01    8.043515e-01
  2.391277e+01    7.969118e-01
  2.402390e+01    8.053161e-01
  2.413503e+01    7.838296e-01
  2.424616e+01    7.616030e-01
  2.435729e+01    7.895918e-01
  2.446842e+01    7.755392e-01
  2.457954e+01    7.739602e-01
  2.469067e+01    7.991873e-01
  2.480180e+01    7.859475e-01
  2.491293e+01    7.934374e-01
  2.502406e+01    7.871542e-01
  2.513519e+01    8.253525e-01
  2.524632e+01    8.218577e-01
  2.535745e+01    8.800908e-01
  2.546858e+01    9.532873e-01
  2.557971e+01    1.053512e+00
  2.569083e+01    1.349782e+00
  2.580196e+01    2.361902e+00
  2.591309e+01    5.913802e+00
  2.602422e+01    7.500341e+00
  2.613535e+01    2.759963e+00
  2.624648e+01    1.484090e+00
  2.635761e+01    1.107647e+00
  2.646874e+01    9.825905e-01
  2.657987e+01    9.114437e-01
  2.669100e+01    8.891180e-01
  2.680212e+01    8.763061e-01
  2.691325e+01    9.191518e-01
  2.702438e+01    1.025157e+00
  2.713551e+01    1.537707e+00
  2.724664e+01    2.405607e+00
  2.735777e+01    1.492011e+00
  2.746890e+01    9.953974e-01
  2.758003e+01    8.813420e-01
  2.769116e+01    8.235735e-01
  2.780229e+01    8.007555e-01
  2.791342e+01    7.986472e-01
  2.802454e+01    8.013396e-01
  2.813567e+01    7.952445e-01
  2.824680e+01    7.794058e-01
  2.835793e+01    7.615671e-01
  2.846906e+01    7.462299e-01
  2.858019e+01    7.487736e-01
  2.869132e+01    7.626694e-01
  2.880245e+01    7.442794e-01
  2.891358e+01    7.393751e-01
  2.902471e+01    7.184993e-01
  2.913583e+01    7.284424e-01
  2.924696e+01    7.336611e-01
  2.935809e+01    7.285687e-01
  2.946922e+01    7.147261e-01
  2.958035e+01    7.316803e-01
  2.969148e+01    7.222160e-01
  2.980261e+01    7.201424e-01
  2.991374e+01    7.259643e-01
  3.002487e+01    7.420390e-01
  3.013600e+01    6.885146e-01
  3.024712e+01    7.097893e-01
  3.035825e+01    7.213117e-01
  3.046938e+01    7.037987e-01
  3.058051e+01    7.038373e-01
  3.069164e+01    7.124000e-01
  3.080277e+01    6.921647e-01
  3.091390e+01    7.170093e-01
  3.102503e+01    7.031002e-01
  3.113616e+01    7.131884e-01
  3.124729e+01    7.255555e-01
  3.135841e+01    7.325933e-01
  3.146954e+01    7.529631e-01
  3.158067e+01    7.809894e-01
  3.169180e+01    8.778579e-01
  3.180293e+01    1.255358e+00
  3.191406e+01    2.289518e+00
  3.202519e+01    1.722058e+00
  3.213632e+01    1.011671e+00
  3.224745e+01    8.205958e-01
  3.235858e+01    7.385825e-01
  3.246970e+01    7.350168e-01
  3.254908e+01    7.380908e-01