File: XRD/Activation ramp/2024-07-27_002_Ru-CGO-ex_Activtation_ramp_000002_data_000168.dat
# == pyFAI calibration ==
# Distance Sample to Detector: 0.4 m
# PONI: 9.750e-02, 1.135e-01 m
# Rotations: -0.000175 0.000000 -0.000000 rad
#
# == Fit2d calibration ==
# Distance Sample-beamCenter: 400.000 mm
# Center: x=1514.000, y=1300.000 pix
# Tilt: 0.010 deg  TiltPlanRot: 0.010 deg
#
# Detector Detector	 Spline= None	 PixelSize= 7.500e-05, 7.500e-05 m
#    Detector has a mask: False
#    Detector has a dark current: False
#    detector has a flat field: False
#
# Wavelength: 6.888e-11 m
# Mask applied: user provided
# Dark current applied: False
# Flat field applied: False
# Polarization factor: 0.99
# Normalization factor: 1.0
# --> /home/myspot/data/2024_07_Rosario/Ru-CGO-ex/2024-07-27_002_Ru-CGO-ex_Activtation_ramp_000002_data_000168.dat
#       q_nm^-1             I
  2.003187e-02    7.711996e-02
  1.311609e-01    1.626193e-02
  2.422899e-01    2.596704e-02
  3.534189e-01    3.258283e-02
  4.645479e-01    2.398865e-02
  5.756770e-01    4.786726e-02
  6.868060e-01    4.449159e-02
  7.979350e-01    1.408770e-01
  9.090640e-01    6.098213e-01
  1.020193e+00    1.134963e+00
  1.131322e+00    1.389143e+00
  1.242451e+00    2.040383e+00
  1.353580e+00    2.564590e+00
  1.464709e+00    2.761896e+00
  1.575838e+00    3.006962e+00
  1.686967e+00    2.724658e+00
  1.798096e+00    2.637336e+00
  1.909225e+00    2.723021e+00
  2.020354e+00    2.672807e+00
  2.131483e+00    2.706113e+00
  2.242612e+00    2.768182e+00
  2.353741e+00    2.794358e+00
  2.464870e+00    2.714290e+00
  2.575999e+00    2.803597e+00
  2.687128e+00    2.859350e+00
  2.798257e+00    2.851885e+00
  2.909386e+00    2.766995e+00
  3.020515e+00    2.819337e+00
  3.131644e+00    2.891929e+00
  3.242773e+00    2.911104e+00
  3.353902e+00    2.986757e+00
  3.465031e+00    2.985030e+00
  3.576160e+00    2.999242e+00
  3.687289e+00    3.023881e+00
  3.798418e+00    3.033938e+00
  3.909547e+00    2.998455e+00
  4.020676e+00    3.006268e+00
  4.131806e+00    2.922200e+00
  4.242935e+00    3.028068e+00
  4.354064e+00    2.943813e+00
  4.465193e+00    3.092791e+00
  4.576322e+00    3.077571e+00
  4.687451e+00    3.055445e+00
  4.798580e+00    3.193068e+00
  4.909709e+00    3.153259e+00
  5.020838e+00    3.133832e+00
  5.131967e+00    3.110877e+00
  5.243096e+00    3.116140e+00
  5.354225e+00    3.063912e+00
  5.465354e+00    3.171627e+00
  5.576483e+00    3.087880e+00
  5.687612e+00    3.139403e+00
  5.798741e+00    3.044650e+00
  5.909870e+00    3.116482e+00
  6.020999e+00    3.033842e+00
  6.132128e+00    3.070935e+00
  6.243257e+00    3.078591e+00
  6.354386e+00    3.069912e+00
  6.465515e+00    3.045855e+00
  6.576644e+00    3.048351e+00
  6.687773e+00    3.049369e+00
  6.798902e+00    3.018420e+00
  6.910031e+00    3.019825e+00
  7.021160e+00    3.001542e+00
  7.132289e+00    2.991104e+00
  7.243418e+00    3.049505e+00
  7.354547e+00    3.013183e+00
  7.465676e+00    3.047122e+00
  7.576805e+00    2.933934e+00
  7.687934e+00    2.951485e+00
  7.799063e+00    2.913081e+00
  7.910192e+00    2.957365e+00
  8.021321e+00    2.991242e+00
  8.132450e+00    2.945812e+00
  8.243579e+00    2.949557e+00
  8.354708e+00    2.831558e+00
  8.465837e+00    2.868564e+00
  8.576966e+00    2.873529e+00
  8.688095e+00    2.895641e+00
  8.799224e+00    2.855713e+00
  8.910353e+00    2.842921e+00
  9.021482e+00    2.834634e+00
  9.132611e+00    2.880682e+00
  9.243740e+00    2.801945e+00
  9.354869e+00    2.834312e+00
  9.465998e+00    2.766948e+00
  9.577127e+00    2.828847e+00
  9.688256e+00    2.783083e+00
  9.799385e+00    2.723507e+00
  9.910514e+00    2.705697e+00
  1.002164e+01    2.710891e+00
  1.013277e+01    2.714135e+00
  1.024390e+01    2.621848e+00
  1.035503e+01    2.657128e+00
  1.046616e+01    2.570218e+00
  1.057729e+01    2.618243e+00
  1.068842e+01    2.550850e+00
  1.079955e+01    2.545303e+00
  1.091068e+01    2.519597e+00
  1.102180e+01    2.486469e+00
  1.113293e+01    2.490594e+00
  1.124406e+01    2.471298e+00
  1.135519e+01    2.403501e+00
  1.146632e+01    2.424310e+00
  1.157745e+01    2.447700e+00
  1.168858e+01    2.398474e+00
  1.179971e+01    2.379417e+00
  1.191084e+01    2.291876e+00
  1.202197e+01    2.288309e+00
  1.213309e+01    2.338806e+00
  1.224422e+01    2.349009e+00
  1.235535e+01    2.337799e+00
  1.246648e+01    2.336198e+00
  1.257761e+01    2.362943e+00
  1.268874e+01    2.475102e+00
  1.279987e+01    2.603684e+00
  1.291100e+01    3.263822e+00
  1.302213e+01    6.220733e+00
  1.313326e+01    1.433189e+01
  1.324438e+01    1.056882e+01
  1.335551e+01    4.150194e+00
  1.346664e+01    2.787752e+00
  1.357777e+01    2.442267e+00
  1.368890e+01    2.254196e+00
  1.380003e+01    2.185510e+00
  1.391116e+01    2.090154e+00
  1.402229e+01    2.019481e+00
  1.413342e+01    1.971616e+00
  1.424455e+01    2.025096e+00
  1.435568e+01    1.993339e+00
  1.446680e+01    1.928420e+00
  1.457793e+01    1.907260e+00
  1.468906e+01    1.968565e+00
  1.480019e+01    1.878282e+00
  1.491132e+01    1.976486e+00
  1.502245e+01    2.207461e+00
  1.513358e+01    3.455603e+00
  1.524471e+01    5.434998e+00
  1.535584e+01    3.511308e+00
  1.546697e+01    2.153155e+00
  1.557809e+01    1.873553e+00
  1.568922e+01    1.720582e+00
  1.580035e+01    1.641942e+00
  1.591148e+01    1.619153e+00
  1.602261e+01    1.603387e+00
  1.613374e+01    1.568811e+00
  1.624487e+01    1.561916e+00
  1.635600e+01    1.539250e+00
  1.646713e+01    1.516754e+00
  1.657826e+01    1.513112e+00
  1.668938e+01    1.465778e+00
  1.680051e+01    1.465281e+00
  1.691164e+01    1.440139e+00
  1.702277e+01    1.442334e+00
  1.713390e+01    1.406701e+00
  1.724503e+01    1.399633e+00
  1.735616e+01    1.367704e+00
  1.746729e+01    1.381385e+00
  1.757842e+01    1.361872e+00
  1.768955e+01    1.345698e+00
  1.780067e+01    1.305397e+00
  1.791180e+01    1.300303e+00
  1.802293e+01    1.327508e+00
  1.813406e+01    1.307040e+00
  1.824519e+01    1.293116e+00
  1.835632e+01    1.269107e+00
  1.846745e+01    1.284242e+00
  1.857858e+01    1.265041e+00
  1.868971e+01    1.244021e+00
  1.880084e+01    1.202186e+00
  1.891196e+01    1.219934e+00
  1.902309e+01    1.187504e+00
  1.913422e+01    1.201726e+00
  1.924535e+01    1.173591e+00
  1.935648e+01    1.145350e+00
  1.946761e+01    1.159435e+00
  1.957874e+01    1.160444e+00
  1.968987e+01    1.169917e+00
  1.980100e+01    1.139152e+00
  1.991213e+01    1.107049e+00
  2.002325e+01    1.120215e+00
  2.013438e+01    1.091866e+00
  2.024551e+01    1.095184e+00
  2.035664e+01    1.100175e+00
  2.046777e+01    1.102163e+00
  2.057890e+01    1.083357e+00
  2.069003e+01    1.089253e+00
  2.080116e+01    1.085141e+00
  2.091229e+01    1.075547e+00
  2.102342e+01    1.075093e+00
  2.113455e+01    1.088567e+00
  2.124567e+01    1.116274e+00
  2.135680e+01    1.127914e+00
  2.146793e+01    1.223177e+00
  2.157906e+01    1.454995e+00
  2.169019e+01    2.346713e+00
  2.180132e+01    5.619935e+00
  2.191245e+01    8.761500e+00
  2.202358e+01    3.522509e+00
  2.213471e+01    1.727513e+00
  2.224584e+01    1.272032e+00
  2.235696e+01    1.115922e+00
  2.246809e+01    1.035921e+00
  2.257922e+01    9.716330e-01
  2.269035e+01    9.345663e-01
  2.280148e+01    9.047508e-01
  2.291261e+01    9.167483e-01
  2.302374e+01    8.682041e-01
  2.313487e+01    8.863889e-01
  2.324600e+01    8.766059e-01
  2.335713e+01    8.603278e-01
  2.346825e+01    8.265063e-01
  2.357938e+01    8.263343e-01
  2.369051e+01    8.390340e-01
  2.380164e+01    8.214226e-01
  2.391277e+01    7.950324e-01
  2.402390e+01    7.924784e-01
  2.413503e+01    7.695561e-01
  2.424616e+01    7.859960e-01
  2.435729e+01    7.913980e-01
  2.446842e+01    7.827917e-01
  2.457954e+01    7.875124e-01
  2.469067e+01    7.871766e-01
  2.480180e+01    7.794083e-01
  2.491293e+01    8.214170e-01
  2.502406e+01    8.030382e-01
  2.513519e+01    8.054366e-01
  2.524632e+01    8.442514e-01
  2.535745e+01    8.884280e-01
  2.546858e+01    9.301119e-01
  2.557971e+01    1.070328e+00
  2.569083e+01    1.411175e+00
  2.580196e+01    2.687276e+00
  2.591309e+01    6.302804e+00
  2.602422e+01    5.374332e+00
  2.613535e+01    2.046500e+00
  2.624648e+01    1.247984e+00
  2.635761e+01    1.018690e+00
  2.646874e+01    9.417537e-01
  2.657987e+01    8.990208e-01
  2.669100e+01    8.918201e-01
  2.680212e+01    8.836900e-01
  2.691325e+01    9.229599e-01
  2.702438e+01    1.061022e+00
  2.713551e+01    1.632048e+00
  2.724664e+01    2.083708e+00
  2.735777e+01    1.190260e+00
  2.746890e+01    9.304121e-01
  2.758003e+01    8.660860e-01
  2.769116e+01    7.953824e-01
  2.780229e+01    8.102661e-01
  2.791342e+01    7.982815e-01
  2.802454e+01    7.931280e-01
  2.813567e+01    7.877173e-01
  2.824680e+01    7.388114e-01
  2.835793e+01    7.708508e-01
  2.846906e+01    7.385207e-01
  2.858019e+01    7.478839e-01
  2.869132e+01    7.400419e-01
  2.880245e+01    7.195268e-01
  2.891358e+01    7.333091e-01
  2.902471e+01    7.161368e-01
  2.913583e+01    7.184702e-01
  2.924696e+01    7.328617e-01
  2.935809e+01    7.295843e-01
  2.946922e+01    7.096875e-01
  2.958035e+01    7.236683e-01
  2.969148e+01    7.242585e-01
  2.980261e+01    7.421598e-01
  2.991374e+01    7.373868e-01
  3.002487e+01    7.340455e-01
  3.013600e+01    7.018189e-01
  3.024712e+01    7.093212e-01
  3.035825e+01    6.988430e-01
  3.046938e+01    7.125614e-01
  3.058051e+01    6.982122e-01
  3.069164e+01    7.080188e-01
  3.080277e+01    7.052899e-01
  3.091390e+01    7.410943e-01
  3.102503e+01    7.303330e-01
  3.113616e+01    7.216007e-01
  3.124729e+01    7.152507e-01
  3.135841e+01    7.453324e-01
  3.146954e+01    7.656552e-01
  3.158067e+01    8.041556e-01
  3.169180e+01    9.376846e-01
  3.180293e+01    1.423043e+00
  3.191406e+01    2.130611e+00
  3.202519e+01    1.290312e+00
  3.213632e+01    8.745435e-01
  3.224745e+01    7.913968e-01
  3.235858e+01    7.458104e-01
  3.246970e+01    6.996975e-01
  3.254908e+01    7.399566e-01