File: XRD/Activation ramp/2024-07-27_002_Ru-CGO-ex_Activtation_ramp_000002_data_000151.dat
# == pyFAI calibration ==
# Distance Sample to Detector: 0.4 m
# PONI: 9.750e-02, 1.135e-01 m
# Rotations: -0.000175 0.000000 -0.000000 rad
#
# == Fit2d calibration ==
# Distance Sample-beamCenter: 400.000 mm
# Center: x=1514.000, y=1300.000 pix
# Tilt: 0.010 deg  TiltPlanRot: 0.010 deg
#
# Detector Detector	 Spline= None	 PixelSize= 7.500e-05, 7.500e-05 m
#    Detector has a mask: False
#    Detector has a dark current: False
#    detector has a flat field: False
#
# Wavelength: 6.888e-11 m
# Mask applied: user provided
# Dark current applied: False
# Flat field applied: False
# Polarization factor: 0.99
# Normalization factor: 1.0
# --> /home/myspot/data/2024_07_Rosario/Ru-CGO-ex/2024-07-27_002_Ru-CGO-ex_Activtation_ramp_000002_data_000151.dat
#       q_nm^-1             I
  2.003187e-02    0.000000e+00
  1.311609e-01    6.469310e-02
  2.422899e-01    3.556723e-03
  3.534189e-01    5.517735e-02
  4.645479e-01    3.968972e-02
  5.756770e-01    3.160184e-02
  6.868060e-01    4.740654e-02
  7.979350e-01    1.696449e-01
  9.090640e-01    5.261705e-01
  1.020193e+00    1.053340e+00
  1.131322e+00    1.491011e+00
  1.242451e+00    2.202925e+00
  1.353580e+00    2.556393e+00
  1.464709e+00    2.724134e+00
  1.575838e+00    2.926682e+00
  1.686967e+00    2.900637e+00
  1.798096e+00    2.731578e+00
  1.909225e+00    2.765500e+00
  2.020354e+00    2.637041e+00
  2.131483e+00    2.668826e+00
  2.242612e+00    2.775590e+00
  2.353741e+00    2.719077e+00
  2.464870e+00    2.746461e+00
  2.575999e+00    2.781014e+00
  2.687128e+00    2.867581e+00
  2.798257e+00    2.824249e+00
  2.909386e+00    2.740454e+00
  3.020515e+00    2.888856e+00
  3.131644e+00    2.994784e+00
  3.242773e+00    3.028799e+00
  3.353902e+00    2.932405e+00
  3.465031e+00    2.944803e+00
  3.576160e+00    3.009151e+00
  3.687289e+00    2.947204e+00
  3.798418e+00    3.071026e+00
  3.909547e+00    3.047180e+00
  4.020676e+00    2.977223e+00
  4.131806e+00    2.978350e+00
  4.242935e+00    3.063287e+00
  4.354064e+00    2.979500e+00
  4.465193e+00    3.094828e+00
  4.576322e+00    3.136299e+00
  4.687451e+00    3.149258e+00
  4.798580e+00    3.122879e+00
  4.909709e+00    3.126640e+00
  5.020838e+00    3.127468e+00
  5.131967e+00    3.149409e+00
  5.243096e+00    3.158003e+00
  5.354225e+00    3.204614e+00
  5.465354e+00    3.187641e+00
  5.576483e+00    3.123152e+00
  5.687612e+00    3.074072e+00
  5.798741e+00    3.071671e+00
  5.909870e+00    3.044000e+00
  6.020999e+00    3.050514e+00
  6.132128e+00    3.142317e+00
  6.243257e+00    3.101042e+00
  6.354386e+00    3.077164e+00
  6.465515e+00    3.168410e+00
  6.576644e+00    3.075510e+00
  6.687773e+00    3.086607e+00
  6.798902e+00    3.054137e+00
  6.910031e+00    3.016892e+00
  7.021160e+00    3.018778e+00
  7.132289e+00    2.998549e+00
  7.243418e+00    2.977398e+00
  7.354547e+00    3.036177e+00
  7.465676e+00    3.005700e+00
  7.576805e+00    2.962650e+00
  7.687934e+00    2.988956e+00
  7.799063e+00    2.977941e+00
  7.910192e+00    3.003481e+00
  8.021321e+00    2.952265e+00
  8.132450e+00    2.966521e+00
  8.243579e+00    2.922780e+00
  8.354708e+00    2.904134e+00
  8.465837e+00    2.880313e+00
  8.576966e+00    2.908358e+00
  8.688095e+00    2.879388e+00
  8.799224e+00    2.893746e+00
  8.910353e+00    2.875982e+00
  9.021482e+00    2.799565e+00
  9.132611e+00    2.821663e+00
  9.243740e+00    2.733889e+00
  9.354869e+00    2.792866e+00
  9.465998e+00    2.782327e+00
  9.577127e+00    2.780324e+00
  9.688256e+00    2.743021e+00
  9.799385e+00    2.721967e+00
  9.910514e+00    2.694301e+00
  1.002164e+01    2.717266e+00
  1.013277e+01    2.638553e+00
  1.024390e+01    2.621464e+00
  1.035503e+01    2.657192e+00
  1.046616e+01    2.643438e+00
  1.057729e+01    2.581378e+00
  1.068842e+01    2.635172e+00
  1.079955e+01    2.582345e+00
  1.091068e+01    2.560329e+00
  1.102180e+01    2.507087e+00
  1.113293e+01    2.492390e+00
  1.124406e+01    2.468970e+00
  1.135519e+01    2.475417e+00
  1.146632e+01    2.438283e+00
  1.157745e+01    2.400024e+00
  1.168858e+01    2.319502e+00
  1.179971e+01    2.346250e+00
  1.191084e+01    2.344777e+00
  1.202197e+01    2.330524e+00
  1.213309e+01    2.382686e+00
  1.224422e+01    2.322334e+00
  1.235535e+01    2.374360e+00
  1.246648e+01    2.338665e+00
  1.257761e+01    2.368366e+00
  1.268874e+01    2.528713e+00
  1.279987e+01    2.668622e+00
  1.291100e+01    3.352268e+00
  1.302213e+01    6.366857e+00
  1.313326e+01    1.468774e+01
  1.324438e+01    1.112279e+01
  1.335551e+01    4.261532e+00
  1.346664e+01    2.851851e+00
  1.357777e+01    2.419781e+00
  1.368890e+01    2.274814e+00
  1.380003e+01    2.183957e+00
  1.391116e+01    2.091435e+00
  1.402229e+01    2.120389e+00
  1.413342e+01    1.974976e+00
  1.424455e+01    1.989977e+00
  1.435568e+01    1.984064e+00
  1.446680e+01    1.960176e+00
  1.457793e+01    1.953244e+00
  1.468906e+01    1.941814e+00
  1.480019e+01    1.910635e+00
  1.491132e+01    1.964124e+00
  1.502245e+01    2.259513e+00
  1.513358e+01    3.517762e+00
  1.524471e+01    5.600486e+00
  1.535584e+01    3.676137e+00
  1.546697e+01    2.182277e+00
  1.557809e+01    1.862708e+00
  1.568922e+01    1.703802e+00
  1.580035e+01    1.688776e+00
  1.591148e+01    1.651828e+00
  1.602261e+01    1.614926e+00
  1.613374e+01    1.575312e+00
  1.624487e+01    1.555009e+00
  1.635600e+01    1.546553e+00
  1.646713e+01    1.528026e+00
  1.657826e+01    1.534932e+00
  1.668938e+01    1.501333e+00
  1.680051e+01    1.481956e+00
  1.691164e+01    1.467321e+00
  1.702277e+01    1.458404e+00
  1.713390e+01    1.431237e+00
  1.724503e+01    1.431178e+00
  1.735616e+01    1.409165e+00
  1.746729e+01    1.356227e+00
  1.757842e+01    1.382671e+00
  1.768955e+01    1.373752e+00
  1.780067e+01    1.354905e+00
  1.791180e+01    1.307445e+00
  1.802293e+01    1.294303e+00
  1.813406e+01    1.279514e+00
  1.824519e+01    1.307526e+00
  1.835632e+01    1.255403e+00
  1.846745e+01    1.279624e+00
  1.857858e+01    1.258390e+00
  1.868971e+01    1.246963e+00
  1.880084e+01    1.209444e+00
  1.891196e+01    1.227988e+00
  1.902309e+01    1.226497e+00
  1.913422e+01    1.194153e+00
  1.924535e+01    1.208367e+00
  1.935648e+01    1.192052e+00
  1.946761e+01    1.156907e+00
  1.957874e+01    1.161514e+00
  1.968987e+01    1.153149e+00
  1.980100e+01    1.135586e+00
  1.991213e+01    1.130210e+00
  2.002325e+01    1.132568e+00
  2.013438e+01    1.119024e+00
  2.024551e+01    1.112796e+00
  2.035664e+01    1.094288e+00
  2.046777e+01    1.076193e+00
  2.057890e+01    1.093780e+00
  2.069003e+01    1.086971e+00
  2.080116e+01    1.085146e+00
  2.091229e+01    1.077910e+00
  2.102342e+01    1.088343e+00
  2.113455e+01    1.085530e+00
  2.124567e+01    1.109393e+00
  2.135680e+01    1.153131e+00
  2.146793e+01    1.230382e+00
  2.157906e+01    1.486994e+00
  2.169019e+01    2.366903e+00
  2.180132e+01    5.658635e+00
  2.191245e+01    9.172637e+00
  2.202358e+01    3.610160e+00
  2.213471e+01    1.760373e+00
  2.224584e+01    1.313936e+00
  2.235696e+01    1.117129e+00
  2.246809e+01    1.047762e+00
  2.257922e+01    1.001916e+00
  2.269035e+01    9.692045e-01
  2.280148e+01    9.384024e-01
  2.291261e+01    9.168960e-01
  2.302374e+01    8.947296e-01
  2.313487e+01    9.064277e-01
  2.324600e+01    8.906101e-01
  2.335713e+01    8.487751e-01
  2.346825e+01    8.678193e-01
  2.357938e+01    8.288647e-01
  2.369051e+01    8.425142e-01
  2.380164e+01    8.231977e-01
  2.391277e+01    8.359235e-01
  2.402390e+01    7.928982e-01
  2.413503e+01    8.161510e-01
  2.424616e+01    7.796873e-01
  2.435729e+01    7.837947e-01
  2.446842e+01    8.158756e-01
  2.457954e+01    7.864543e-01
  2.469067e+01    8.149189e-01
  2.480180e+01    8.126269e-01
  2.491293e+01    8.048273e-01
  2.502406e+01    8.069767e-01
  2.513519e+01    8.311512e-01
  2.524632e+01    8.621902e-01
  2.535745e+01    8.946574e-01
  2.546858e+01    9.484766e-01
  2.557971e+01    1.080451e+00
  2.569083e+01    1.409687e+00
  2.580196e+01    2.692812e+00
  2.591309e+01    6.364224e+00
  2.602422e+01    5.715963e+00
  2.613535e+01    2.134165e+00
  2.624648e+01    1.291511e+00
  2.635761e+01    1.041537e+00
  2.646874e+01    9.518385e-01
  2.657987e+01    9.131311e-01
  2.669100e+01    8.883260e-01
  2.680212e+01    8.840615e-01
  2.691325e+01    9.362690e-01
  2.702438e+01    1.078393e+00
  2.713551e+01    1.653821e+00
  2.724664e+01    2.205310e+00
  2.735777e+01    1.263199e+00
  2.746890e+01    9.282489e-01
  2.758003e+01    8.790994e-01
  2.769116e+01    8.362671e-01
  2.780229e+01    8.172556e-01
  2.791342e+01    8.124087e-01
  2.802454e+01    8.044471e-01
  2.813567e+01    7.540330e-01
  2.824680e+01    7.890366e-01
  2.835793e+01    7.492959e-01
  2.846906e+01    7.786760e-01
  2.858019e+01    7.733024e-01
  2.869132e+01    7.555324e-01
  2.880245e+01    7.609466e-01
  2.891358e+01    7.382728e-01
  2.902471e+01    7.265650e-01
  2.913583e+01    7.515004e-01
  2.924696e+01    7.326251e-01
  2.935809e+01    7.242622e-01
  2.946922e+01    7.400239e-01
  2.958035e+01    7.324632e-01
  2.969148e+01    7.161770e-01
  2.980261e+01    7.073119e-01
  2.991374e+01    7.165117e-01
  3.002487e+01    7.302913e-01
  3.013600e+01    7.384685e-01
  3.024712e+01    7.183266e-01
  3.035825e+01    7.065165e-01
  3.046938e+01    7.337584e-01
  3.058051e+01    7.016166e-01
  3.069164e+01    7.098629e-01
  3.080277e+01    7.261830e-01
  3.091390e+01    7.014366e-01
  3.102503e+01    7.199858e-01
  3.113616e+01    7.301465e-01
  3.124729e+01    7.297356e-01
  3.135841e+01    7.365711e-01
  3.146954e+01    7.723961e-01
  3.158067e+01    8.050297e-01
  3.169180e+01    9.429548e-01
  3.180293e+01    1.435472e+00
  3.191406e+01    2.179630e+00
  3.202519e+01    1.351140e+00
  3.213632e+01    9.147682e-01
  3.224745e+01    7.803337e-01
  3.235858e+01    7.599187e-01
  3.246970e+01    7.236523e-01
  3.254908e+01    7.311196e-01