File: XRD/Activation ramp/2024-07-27_002_Ru-CGO-ex_Activtation_ramp_000002_data_000148.dat
# == pyFAI calibration ==
# Distance Sample to Detector: 0.4 m
# PONI: 9.750e-02, 1.135e-01 m
# Rotations: -0.000175 0.000000 -0.000000 rad
#
# == Fit2d calibration ==
# Distance Sample-beamCenter: 400.000 mm
# Center: x=1514.000, y=1300.000 pix
# Tilt: 0.010 deg  TiltPlanRot: 0.010 deg
#
# Detector Detector	 Spline= None	 PixelSize= 7.500e-05, 7.500e-05 m
#    Detector has a mask: False
#    Detector has a dark current: False
#    detector has a flat field: False
#
# Wavelength: 6.888e-11 m
# Mask applied: user provided
# Dark current applied: False
# Flat field applied: False
# Polarization factor: 0.99
# Normalization factor: 1.0
# --> /home/myspot/data/2024_07_Rosario/Ru-CGO-ex/2024-07-27_002_Ru-CGO-ex_Activtation_ramp_000002_data_000148.dat
#       q_nm^-1             I
  2.003187e-02    2.849293e-01
  1.311609e-01    0.000000e+00
  2.422899e-01    4.879234e-02
  3.534189e-01    1.240127e-02
  4.645479e-01    5.007319e-02
  5.756770e-01    5.919353e-02
  6.868060e-01    3.544345e-02
  7.979350e-01    1.860578e-01
  9.090640e-01    6.111828e-01
  1.020193e+00    1.079129e+00
  1.131322e+00    1.407156e+00
  1.242451e+00    2.208361e+00
  1.353580e+00    2.512836e+00
  1.464709e+00    2.854118e+00
  1.575838e+00    2.821836e+00
  1.686967e+00    2.750718e+00
  1.798096e+00    2.767164e+00
  1.909225e+00    2.670024e+00
  2.020354e+00    2.689750e+00
  2.131483e+00    2.747223e+00
  2.242612e+00    2.621132e+00
  2.353741e+00    2.796716e+00
  2.464870e+00    2.794562e+00
  2.575999e+00    2.746669e+00
  2.687128e+00    2.820091e+00
  2.798257e+00    2.806801e+00
  2.909386e+00    2.936733e+00
  3.020515e+00    2.828345e+00
  3.131644e+00    2.877761e+00
  3.242773e+00    2.935147e+00
  3.353902e+00    2.910414e+00
  3.465031e+00    2.925605e+00
  3.576160e+00    2.979047e+00
  3.687289e+00    2.948035e+00
  3.798418e+00    3.028541e+00
  3.909547e+00    2.983875e+00
  4.020676e+00    3.098612e+00
  4.131806e+00    2.989228e+00
  4.242935e+00    3.042936e+00
  4.354064e+00    3.025852e+00
  4.465193e+00    3.102580e+00
  4.576322e+00    3.058686e+00
  4.687451e+00    3.142308e+00
  4.798580e+00    3.123040e+00
  4.909709e+00    3.013824e+00
  5.020838e+00    3.146885e+00
  5.131967e+00    3.132029e+00
  5.243096e+00    3.099212e+00
  5.354225e+00    3.172645e+00
  5.465354e+00    3.067343e+00
  5.576483e+00    3.029651e+00
  5.687612e+00    2.995459e+00
  5.798741e+00    3.014094e+00
  5.909870e+00    2.967000e+00
  6.020999e+00    3.030602e+00
  6.132128e+00    2.958386e+00
  6.243257e+00    2.979887e+00
  6.354386e+00    2.997569e+00
  6.465515e+00    3.030901e+00
  6.576644e+00    3.011857e+00
  6.687773e+00    3.009578e+00
  6.798902e+00    3.013521e+00
  6.910031e+00    2.927164e+00
  7.021160e+00    3.043435e+00
  7.132289e+00    3.012767e+00
  7.243418e+00    2.966166e+00
  7.354547e+00    3.022758e+00
  7.465676e+00    2.974331e+00
  7.576805e+00    2.954369e+00
  7.687934e+00    2.994074e+00
  7.799063e+00    2.981004e+00
  7.910192e+00    2.930364e+00
  8.021321e+00    2.903710e+00
  8.132450e+00    2.949228e+00
  8.243579e+00    2.981757e+00
  8.354708e+00    2.893742e+00
  8.465837e+00    2.861479e+00
  8.576966e+00    2.814886e+00
  8.688095e+00    2.797722e+00
  8.799224e+00    2.810735e+00
  8.910353e+00    2.856129e+00
  9.021482e+00    2.767221e+00
  9.132611e+00    2.763895e+00
  9.243740e+00    2.702010e+00
  9.354869e+00    2.759025e+00
  9.465998e+00    2.799320e+00
  9.577127e+00    2.717545e+00
  9.688256e+00    2.728799e+00
  9.799385e+00    2.695201e+00
  9.910514e+00    2.678627e+00
  1.002164e+01    2.640821e+00
  1.013277e+01    2.628353e+00
  1.024390e+01    2.635637e+00
  1.035503e+01    2.632725e+00
  1.046616e+01    2.600112e+00
  1.057729e+01    2.559063e+00
  1.068842e+01    2.484814e+00
  1.079955e+01    2.545363e+00
  1.091068e+01    2.510670e+00
  1.102180e+01    2.480438e+00
  1.113293e+01    2.481223e+00
  1.124406e+01    2.426261e+00
  1.135519e+01    2.413993e+00
  1.146632e+01    2.420126e+00
  1.157745e+01    2.421122e+00
  1.168858e+01    2.365099e+00
  1.179971e+01    2.364794e+00
  1.191084e+01    2.308661e+00
  1.202197e+01    2.327764e+00
  1.213309e+01    2.317344e+00
  1.224422e+01    2.304987e+00
  1.235535e+01    2.316537e+00
  1.246648e+01    2.292335e+00
  1.257761e+01    2.339479e+00
  1.268874e+01    2.468994e+00
  1.279987e+01    2.607767e+00
  1.291100e+01    3.296499e+00
  1.302213e+01    6.175533e+00
  1.313326e+01    1.431928e+01
  1.324438e+01    1.147979e+01
  1.335551e+01    4.241436e+00
  1.346664e+01    2.837249e+00
  1.357777e+01    2.447352e+00
  1.368890e+01    2.242992e+00
  1.380003e+01    2.121639e+00
  1.391116e+01    2.093364e+00
  1.402229e+01    2.059139e+00
  1.413342e+01    2.016177e+00
  1.424455e+01    2.005952e+00
  1.435568e+01    1.912365e+00
  1.446680e+01    1.950243e+00
  1.457793e+01    1.890989e+00
  1.468906e+01    1.916250e+00
  1.480019e+01    1.931563e+00
  1.491132e+01    1.958842e+00
  1.502245e+01    2.158604e+00
  1.513358e+01    3.426533e+00
  1.524471e+01    5.571975e+00
  1.535584e+01    3.804327e+00
  1.546697e+01    2.204079e+00
  1.557809e+01    1.860080e+00
  1.568922e+01    1.746381e+00
  1.580035e+01    1.628306e+00
  1.591148e+01    1.665421e+00
  1.602261e+01    1.606756e+00
  1.613374e+01    1.555130e+00
  1.624487e+01    1.514447e+00
  1.635600e+01    1.549139e+00
  1.646713e+01    1.512663e+00
  1.657826e+01    1.505364e+00
  1.668938e+01    1.444759e+00
  1.680051e+01    1.471779e+00
  1.691164e+01    1.447205e+00
  1.702277e+01    1.401462e+00
  1.713390e+01    1.431867e+00
  1.724503e+01    1.399116e+00
  1.735616e+01    1.382524e+00
  1.746729e+01    1.398862e+00
  1.757842e+01    1.349009e+00
  1.768955e+01    1.356874e+00
  1.780067e+01    1.322587e+00
  1.791180e+01    1.304460e+00
  1.802293e+01    1.316059e+00
  1.813406e+01    1.306631e+00
  1.824519e+01    1.311418e+00
  1.835632e+01    1.278706e+00
  1.846745e+01    1.273677e+00
  1.857858e+01    1.239143e+00
  1.868971e+01    1.221595e+00
  1.880084e+01    1.204621e+00
  1.891196e+01    1.238788e+00
  1.902309e+01    1.204546e+00
  1.913422e+01    1.185910e+00
  1.924535e+01    1.151620e+00
  1.935648e+01    1.180874e+00
  1.946761e+01    1.158548e+00
  1.957874e+01    1.148588e+00
  1.968987e+01    1.150428e+00
  1.980100e+01    1.144196e+00
  1.991213e+01    1.137492e+00
  2.002325e+01    1.109707e+00
  2.013438e+01    1.118929e+00
  2.024551e+01    1.097128e+00
  2.035664e+01    1.094373e+00
  2.046777e+01    1.065988e+00
  2.057890e+01    1.104274e+00
  2.069003e+01    1.082382e+00
  2.080116e+01    1.094229e+00
  2.091229e+01    1.073193e+00
  2.102342e+01    1.081854e+00
  2.113455e+01    1.083136e+00
  2.124567e+01    1.105109e+00
  2.135680e+01    1.128700e+00
  2.146793e+01    1.214108e+00
  2.157906e+01    1.462046e+00
  2.169019e+01    2.287602e+00
  2.180132e+01    5.469254e+00
  2.191245e+01    9.127780e+00
  2.202358e+01    3.766703e+00
  2.213471e+01    1.801017e+00
  2.224584e+01    1.291625e+00
  2.235696e+01    1.113487e+00
  2.246809e+01    1.040584e+00
  2.257922e+01    9.908111e-01
  2.269035e+01    9.345039e-01
  2.280148e+01    9.225779e-01
  2.291261e+01    9.165680e-01
  2.302374e+01    8.883650e-01
  2.313487e+01    8.801851e-01
  2.324600e+01    8.710371e-01
  2.335713e+01    8.613621e-01
  2.346825e+01    8.557869e-01
  2.357938e+01    8.207112e-01
  2.369051e+01    8.275152e-01
  2.380164e+01    8.001780e-01
  2.391277e+01    7.851598e-01
  2.402390e+01    7.798344e-01
  2.413503e+01    7.852296e-01
  2.424616e+01    7.687346e-01
  2.435729e+01    8.025560e-01
  2.446842e+01    7.994150e-01
  2.457954e+01    8.090487e-01
  2.469067e+01    7.716547e-01
  2.480180e+01    7.849761e-01
  2.491293e+01    8.029693e-01
  2.502406e+01    8.071067e-01
  2.513519e+01    7.988897e-01
  2.524632e+01    8.496262e-01
  2.535745e+01    8.592357e-01
  2.546858e+01    9.279928e-01
  2.557971e+01    1.058912e+00
  2.569083e+01    1.399237e+00
  2.580196e+01    2.629683e+00
  2.591309e+01    6.192560e+00
  2.602422e+01    5.930676e+00
  2.613535e+01    2.212532e+00
  2.624648e+01    1.272443e+00
  2.635761e+01    1.045022e+00
  2.646874e+01    9.470425e-01
  2.657987e+01    8.962935e-01
  2.669100e+01    8.839642e-01
  2.680212e+01    8.731406e-01
  2.691325e+01    9.120104e-01
  2.702438e+01    1.036314e+00
  2.713551e+01    1.586154e+00
  2.724664e+01    2.172472e+00
  2.735777e+01    1.280652e+00
  2.746890e+01    9.620923e-01
  2.758003e+01    8.668498e-01
  2.769116e+01    8.282661e-01
  2.780229e+01    8.178858e-01
  2.791342e+01    7.896883e-01
  2.802454e+01    7.824952e-01
  2.813567e+01    7.832247e-01
  2.824680e+01    7.696972e-01
  2.835793e+01    7.510027e-01
  2.846906e+01    7.469894e-01
  2.858019e+01    7.491547e-01
  2.869132e+01    7.254924e-01
  2.880245e+01    7.543252e-01
  2.891358e+01    7.246957e-01
  2.902471e+01    7.436724e-01
  2.913583e+01    7.323254e-01
  2.924696e+01    7.394089e-01
  2.935809e+01    7.325456e-01
  2.946922e+01    7.213888e-01
  2.958035e+01    7.213293e-01
  2.969148e+01    7.028761e-01
  2.980261e+01    7.191203e-01
  2.991374e+01    7.120063e-01
  3.002487e+01    7.227246e-01
  3.013600e+01    7.328132e-01
  3.024712e+01    7.115032e-01
  3.035825e+01    7.122650e-01
  3.046938e+01    7.052455e-01
  3.058051e+01    7.225497e-01
  3.069164e+01    7.118664e-01
  3.080277e+01    6.976703e-01
  3.091390e+01    7.151327e-01
  3.102503e+01    7.406651e-01
  3.113616e+01    7.200003e-01
  3.124729e+01    7.382734e-01
  3.135841e+01    7.235371e-01
  3.146954e+01    7.352335e-01
  3.158067e+01    8.157875e-01
  3.169180e+01    9.025711e-01
  3.180293e+01    1.350606e+00
  3.191406e+01    2.207391e+00
  3.202519e+01    1.387052e+00
  3.213632e+01    9.006591e-01
  3.224745e+01    7.785373e-01
  3.235858e+01    7.137536e-01
  3.246970e+01    7.360962e-01
  3.254908e+01    7.344613e-01