File: XRD/Activation ramp/2024-07-27_002_Ru-CGO-ex_Activtation_ramp_000002_data_000031.dat
# == pyFAI calibration ==
# Distance Sample to Detector: 0.4 m
# PONI: 9.750e-02, 1.135e-01 m
# Rotations: -0.000175 0.000000 -0.000000 rad
#
# == Fit2d calibration ==
# Distance Sample-beamCenter: 400.000 mm
# Center: x=1514.000, y=1300.000 pix
# Tilt: 0.010 deg  TiltPlanRot: 0.010 deg
#
# Detector Detector	 Spline= None	 PixelSize= 7.500e-05, 7.500e-05 m
#    Detector has a mask: False
#    Detector has a dark current: False
#    detector has a flat field: False
#
# Wavelength: 6.888e-11 m
# Mask applied: user provided
# Dark current applied: False
# Flat field applied: False
# Polarization factor: 0.99
# Normalization factor: 1.0
# --> /home/myspot/data/2024_07_Rosario/Ru-CGO-ex/2024-07-27_002_Ru-CGO-ex_Activtation_ramp_000002_data_000031.dat
#       q_nm^-1             I
  2.003187e-02    1.424646e-01
  1.311609e-01    7.824729e-02
  2.422899e-01    2.463277e-02
  3.534189e-01    8.399946e-03
  4.645479e-01    6.005621e-02
  5.756770e-01    3.718200e-02
  6.868060e-01    2.987225e-02
  7.979350e-01    1.170348e-01
  9.090640e-01    6.380564e-01
  1.020193e+00    1.190650e+00
  1.131322e+00    1.416976e+00
  1.242451e+00    2.266186e+00
  1.353580e+00    2.648516e+00
  1.464709e+00    2.928380e+00
  1.575838e+00    2.962690e+00
  1.686967e+00    2.951228e+00
  1.798096e+00    2.871989e+00
  1.909225e+00    2.712756e+00
  2.020354e+00    2.728560e+00
  2.131483e+00    2.796091e+00
  2.242612e+00    2.938988e+00
  2.353741e+00    2.842817e+00
  2.464870e+00    2.858293e+00
  2.575999e+00    2.761995e+00
  2.687128e+00    2.876540e+00
  2.798257e+00    2.835438e+00
  2.909386e+00    2.926145e+00
  3.020515e+00    2.887468e+00
  3.131644e+00    2.990617e+00
  3.242773e+00    2.971276e+00
  3.353902e+00    2.969823e+00
  3.465031e+00    2.941745e+00
  3.576160e+00    2.925505e+00
  3.687289e+00    3.020740e+00
  3.798418e+00    2.921304e+00
  3.909547e+00    3.058864e+00
  4.020676e+00    3.080503e+00
  4.131806e+00    3.062487e+00
  4.242935e+00    3.043933e+00
  4.354064e+00    3.067346e+00
  4.465193e+00    3.114554e+00
  4.576322e+00    3.106789e+00
  4.687451e+00    3.049312e+00
  4.798580e+00    3.114740e+00
  4.909709e+00    3.089473e+00
  5.020838e+00    3.100632e+00
  5.131967e+00    3.162271e+00
  5.243096e+00    3.219939e+00
  5.354225e+00    3.230886e+00
  5.465354e+00    3.142541e+00
  5.576483e+00    3.115797e+00
  5.687612e+00    3.090793e+00
  5.798741e+00    3.147858e+00
  5.909870e+00    3.005287e+00
  6.020999e+00    3.058484e+00
  6.132128e+00    3.055718e+00
  6.243257e+00    3.053173e+00
  6.354386e+00    3.135440e+00
  6.465515e+00    3.055739e+00
  6.576644e+00    2.991202e+00
  6.687773e+00    3.055463e+00
  6.798902e+00    3.089874e+00
  6.910031e+00    3.002872e+00
  7.021160e+00    3.015146e+00
  7.132289e+00    3.036747e+00
  7.243418e+00    3.088254e+00
  7.354547e+00    3.022439e+00
  7.465676e+00    3.004285e+00
  7.576805e+00    2.980731e+00
  7.687934e+00    3.033202e+00
  7.799063e+00    3.052847e+00
  7.910192e+00    2.920540e+00
  8.021321e+00    2.949636e+00
  8.132450e+00    2.950674e+00
  8.243579e+00    3.000679e+00
  8.354708e+00    2.994883e+00
  8.465837e+00    2.938224e+00
  8.576966e+00    2.955672e+00
  8.688095e+00    2.916633e+00
  8.799224e+00    2.831575e+00
  8.910353e+00    2.798875e+00
  9.021482e+00    2.852113e+00
  9.132611e+00    2.773649e+00
  9.243740e+00    2.815386e+00
  9.354869e+00    2.734757e+00
  9.465998e+00    2.783576e+00
  9.577127e+00    2.743800e+00
  9.688256e+00    2.794425e+00
  9.799385e+00    2.709498e+00
  9.910514e+00    2.709856e+00
  1.002164e+01    2.666862e+00
  1.013277e+01    2.713519e+00
  1.024390e+01    2.729041e+00
  1.035503e+01    2.642535e+00
  1.046616e+01    2.631481e+00
  1.057729e+01    2.634403e+00
  1.068842e+01    2.585234e+00
  1.079955e+01    2.584089e+00
  1.091068e+01    2.531209e+00
  1.102180e+01    2.495471e+00
  1.113293e+01    2.483310e+00
  1.124406e+01    2.488965e+00
  1.135519e+01    2.422212e+00
  1.146632e+01    2.455314e+00
  1.157745e+01    2.441607e+00
  1.168858e+01    2.400174e+00
  1.179971e+01    2.342351e+00
  1.191084e+01    2.377240e+00
  1.202197e+01    2.362965e+00
  1.213309e+01    2.316267e+00
  1.224422e+01    2.387263e+00
  1.235535e+01    2.356690e+00
  1.246648e+01    2.347447e+00
  1.257761e+01    2.385551e+00
  1.268874e+01    2.438639e+00
  1.279987e+01    2.748399e+00
  1.291100e+01    3.326142e+00
  1.302213e+01    5.921995e+00
  1.313326e+01    1.509962e+01
  1.324438e+01    1.604053e+01
  1.335551e+01    5.391126e+00
  1.346664e+01    3.161424e+00
  1.357777e+01    2.579270e+00
  1.368890e+01    2.359873e+00
  1.380003e+01    2.227803e+00
  1.391116e+01    2.164326e+00
  1.402229e+01    2.118514e+00
  1.413342e+01    2.037737e+00
  1.424455e+01    1.990398e+00
  1.435568e+01    1.990821e+00
  1.446680e+01    1.963594e+00
  1.457793e+01    1.944787e+00
  1.468906e+01    1.924281e+00
  1.480019e+01    1.936122e+00
  1.491132e+01    2.018813e+00
  1.502245e+01    2.225181e+00
  1.513358e+01    3.283878e+00
  1.524471e+01    6.067188e+00
  1.535584e+01    4.956678e+00
  1.546697e+01    2.485265e+00
  1.557809e+01    1.973107e+00
  1.568922e+01    1.828349e+00
  1.580035e+01    1.712285e+00
  1.591148e+01    1.693665e+00
  1.602261e+01    1.666560e+00
  1.613374e+01    1.577618e+00
  1.624487e+01    1.601142e+00
  1.635600e+01    1.560483e+00
  1.646713e+01    1.516838e+00
  1.657826e+01    1.546182e+00
  1.668938e+01    1.529045e+00
  1.680051e+01    1.471098e+00
  1.691164e+01    1.487912e+00
  1.702277e+01    1.436796e+00
  1.713390e+01    1.460449e+00
  1.724503e+01    1.402431e+00
  1.735616e+01    1.421826e+00
  1.746729e+01    1.384353e+00
  1.757842e+01    1.362603e+00
  1.768955e+01    1.365039e+00
  1.780067e+01    1.357622e+00
  1.791180e+01    1.331993e+00
  1.802293e+01    1.309879e+00
  1.813406e+01    1.313340e+00
  1.824519e+01    1.297051e+00
  1.835632e+01    1.280287e+00
  1.846745e+01    1.245693e+00
  1.857858e+01    1.238148e+00
  1.868971e+01    1.235523e+00
  1.880084e+01    1.259759e+00
  1.891196e+01    1.241510e+00
  1.902309e+01    1.220448e+00
  1.913422e+01    1.196919e+00
  1.924535e+01    1.180055e+00
  1.935648e+01    1.190486e+00
  1.946761e+01    1.184837e+00
  1.957874e+01    1.165339e+00
  1.968987e+01    1.176390e+00
  1.980100e+01    1.142570e+00
  1.991213e+01    1.120744e+00
  2.002325e+01    1.131387e+00
  2.013438e+01    1.137169e+00
  2.024551e+01    1.134994e+00
  2.035664e+01    1.132617e+00
  2.046777e+01    1.125926e+00
  2.057890e+01    1.095311e+00
  2.069003e+01    1.091579e+00
  2.080116e+01    1.093945e+00
  2.091229e+01    1.105368e+00
  2.102342e+01    1.059206e+00
  2.113455e+01    1.102575e+00
  2.124567e+01    1.094462e+00
  2.135680e+01    1.168077e+00
  2.146793e+01    1.221011e+00
  2.157906e+01    1.468377e+00
  2.169019e+01    2.109878e+00
  2.180132e+01    4.954595e+00
  2.191245e+01    1.049885e+01
  2.202358e+01    5.870148e+00
  2.213471e+01    2.322912e+00
  2.224584e+01    1.475501e+00
  2.235696e+01    1.205151e+00
  2.246809e+01    1.111199e+00
  2.257922e+01    1.022011e+00
  2.269035e+01    9.954603e-01
  2.280148e+01    9.487363e-01
  2.291261e+01    9.161823e-01
  2.302374e+01    9.159731e-01
  2.313487e+01    9.024578e-01
  2.324600e+01    9.014636e-01
  2.335713e+01    8.824030e-01
  2.346825e+01    8.659607e-01
  2.357938e+01    8.716127e-01
  2.369051e+01    8.395414e-01
  2.380164e+01    8.282939e-01
  2.391277e+01    8.319213e-01
  2.402390e+01    8.014982e-01
  2.413503e+01    8.125443e-01
  2.424616e+01    7.798489e-01
  2.435729e+01    7.946526e-01
  2.446842e+01    8.087708e-01
  2.457954e+01    7.947977e-01
  2.469067e+01    8.101585e-01
  2.480180e+01    8.006816e-01
  2.491293e+01    8.014090e-01
  2.502406e+01    8.131011e-01
  2.513519e+01    8.278202e-01
  2.524632e+01    8.751163e-01
  2.535745e+01    9.079435e-01
  2.546858e+01    9.323660e-01
  2.557971e+01    1.069257e+00
  2.569083e+01    1.292320e+00
  2.580196e+01    2.211175e+00
  2.591309e+01    5.649125e+00
  2.602422e+01    8.797764e+00
  2.613535e+01    3.448234e+00
  2.624648e+01    1.643688e+00
  2.635761e+01    1.187877e+00
  2.646874e+01    1.014133e+00
  2.657987e+01    9.485018e-01
  2.669100e+01    9.357117e-01
  2.680212e+01    9.289436e-01
  2.691325e+01    9.341501e-01
  2.702438e+01    1.057321e+00
  2.713551e+01    1.466441e+00
  2.724664e+01    2.499346e+00
  2.735777e+01    1.740337e+00
  2.746890e+01    1.110912e+00
  2.758003e+01    9.207560e-01
  2.769116e+01    8.745363e-01
  2.780229e+01    8.165492e-01
  2.791342e+01    8.191184e-01
  2.802454e+01    8.344265e-01
  2.813567e+01    7.910892e-01
  2.824680e+01    7.953228e-01
  2.835793e+01    7.751014e-01
  2.846906e+01    7.671317e-01
  2.858019e+01    7.772235e-01
  2.869132e+01    7.699036e-01
  2.880245e+01    7.507592e-01
  2.891358e+01    7.434726e-01
  2.902471e+01    7.562621e-01
  2.913583e+01    7.359613e-01
  2.924696e+01    7.654976e-01
  2.935809e+01    7.244788e-01
  2.946922e+01    7.455791e-01
  2.958035e+01    7.405207e-01
  2.969148e+01    7.361405e-01
  2.980261e+01    7.283996e-01
  2.991374e+01    7.312638e-01
  3.002487e+01    7.456191e-01
  3.013600e+01    7.306226e-01
  3.024712e+01    7.346798e-01
  3.035825e+01    7.259464e-01
  3.046938e+01    7.268317e-01
  3.058051e+01    7.202072e-01
  3.069164e+01    7.318149e-01
  3.080277e+01    7.133936e-01
  3.091390e+01    7.210659e-01
  3.102503e+01    7.266467e-01
  3.113616e+01    7.217717e-01
  3.124729e+01    7.418920e-01
  3.135841e+01    7.398511e-01
  3.146954e+01    7.677284e-01
  3.158067e+01    8.069836e-01
  3.169180e+01    8.988939e-01
  3.180293e+01    1.210636e+00
  3.191406e+01    2.263747e+00
  3.202519e+01    2.118803e+00
  3.213632e+01    1.104161e+00
  3.224745e+01    8.870928e-01
  3.235858e+01    7.870349e-01
  3.246970e+01    7.755631e-01
  3.254908e+01    7.349841e-01