File: XRD/Activation ramp/2024-07-27_002_Ru-CGO-ex_Activtation_ramp_000002_data_000178.dat
# == pyFAI calibration ==
# Distance Sample to Detector: 0.4 m
# PONI: 9.750e-02, 1.135e-01 m
# Rotations: -0.000175 0.000000 -0.000000 rad
#
# == Fit2d calibration ==
# Distance Sample-beamCenter: 400.000 mm
# Center: x=1514.000, y=1300.000 pix
# Tilt: 0.010 deg  TiltPlanRot: 0.010 deg
#
# Detector Detector	 Spline= None	 PixelSize= 7.500e-05, 7.500e-05 m
#    Detector has a mask: False
#    Detector has a dark current: False
#    detector has a flat field: False
#
# Wavelength: 6.888e-11 m
# Mask applied: user provided
# Dark current applied: False
# Flat field applied: False
# Polarization factor: 0.99
# Normalization factor: 1.0
# --> /home/myspot/data/2024_07_Rosario/Ru-CGO-ex/2024-07-27_002_Ru-CGO-ex_Activtation_ramp_000002_data_000178.dat
#       q_nm^-1             I
  2.003187e-02    0.000000e+00
  1.311609e-01    1.852748e-02
  2.422899e-01    1.772034e-02
  3.534189e-01    7.336374e-02
  4.645479e-01    3.084466e-02
  5.756770e-01    4.913763e-02
  6.868060e-01    2.622410e-02
  7.979350e-01    1.485676e-01
  9.090640e-01    5.451181e-01
  1.020193e+00    1.101893e+00
  1.131322e+00    1.392946e+00
  1.242451e+00    2.161008e+00
  1.353580e+00    2.477346e+00
  1.464709e+00    2.745909e+00
  1.575838e+00    2.997681e+00
  1.686967e+00    2.877313e+00
  1.798096e+00    2.740686e+00
  1.909225e+00    2.725021e+00
  2.020354e+00    2.815312e+00
  2.131483e+00    2.748177e+00
  2.242612e+00    2.778652e+00
  2.353741e+00    2.798506e+00
  2.464870e+00    2.759862e+00
  2.575999e+00    2.675990e+00
  2.687128e+00    2.868592e+00
  2.798257e+00    2.944885e+00
  2.909386e+00    2.882287e+00
  3.020515e+00    2.869747e+00
  3.131644e+00    2.901730e+00
  3.242773e+00    2.961923e+00
  3.353902e+00    3.025003e+00
  3.465031e+00    3.013051e+00
  3.576160e+00    2.916045e+00
  3.687289e+00    2.952084e+00
  3.798418e+00    3.012725e+00
  3.909547e+00    3.011486e+00
  4.020676e+00    2.985253e+00
  4.131806e+00    3.068882e+00
  4.242935e+00    3.005373e+00
  4.354064e+00    3.111416e+00
  4.465193e+00    3.058125e+00
  4.576322e+00    3.253151e+00
  4.687451e+00    3.058544e+00
  4.798580e+00    3.103731e+00
  4.909709e+00    3.157767e+00
  5.020838e+00    3.154224e+00
  5.131967e+00    3.079854e+00
  5.243096e+00    3.113821e+00
  5.354225e+00    3.180414e+00
  5.465354e+00    3.143481e+00
  5.576483e+00    3.084298e+00
  5.687612e+00    3.075254e+00
  5.798741e+00    3.125365e+00
  5.909870e+00    3.097380e+00
  6.020999e+00    3.062178e+00
  6.132128e+00    3.019234e+00
  6.243257e+00    3.042162e+00
  6.354386e+00    3.104456e+00
  6.465515e+00    2.973578e+00
  6.576644e+00    2.962692e+00
  6.687773e+00    3.062224e+00
  6.798902e+00    3.047342e+00
  6.910031e+00    3.047392e+00
  7.021160e+00    3.011835e+00
  7.132289e+00    3.078465e+00
  7.243418e+00    3.060880e+00
  7.354547e+00    3.113464e+00
  7.465676e+00    3.002523e+00
  7.576805e+00    3.009597e+00
  7.687934e+00    2.983804e+00
  7.799063e+00    2.898665e+00
  7.910192e+00    2.954660e+00
  8.021321e+00    2.989011e+00
  8.132450e+00    2.972847e+00
  8.243579e+00    2.961367e+00
  8.354708e+00    2.929533e+00
  8.465837e+00    2.856575e+00
  8.576966e+00    2.872122e+00
  8.688095e+00    2.937892e+00
  8.799224e+00    2.815989e+00
  8.910353e+00    2.840607e+00
  9.021482e+00    2.874075e+00
  9.132611e+00    2.822743e+00
  9.243740e+00    2.819140e+00
  9.354869e+00    2.811113e+00
  9.465998e+00    2.798440e+00
  9.577127e+00    2.724262e+00
  9.688256e+00    2.793818e+00
  9.799385e+00    2.717554e+00
  9.910514e+00    2.740646e+00
  1.002164e+01    2.678806e+00
  1.013277e+01    2.743082e+00
  1.024390e+01    2.600706e+00
  1.035503e+01    2.634012e+00
  1.046616e+01    2.622886e+00
  1.057729e+01    2.557749e+00
  1.068842e+01    2.559341e+00
  1.079955e+01    2.537044e+00
  1.091068e+01    2.516698e+00
  1.102180e+01    2.539397e+00
  1.113293e+01    2.483759e+00
  1.124406e+01    2.474609e+00
  1.135519e+01    2.407367e+00
  1.146632e+01    2.407722e+00
  1.157745e+01    2.409290e+00
  1.168858e+01    2.379729e+00
  1.179971e+01    2.373515e+00
  1.191084e+01    2.363292e+00
  1.202197e+01    2.359890e+00
  1.213309e+01    2.365681e+00
  1.224422e+01    2.336427e+00
  1.235535e+01    2.283632e+00
  1.246648e+01    2.336844e+00
  1.257761e+01    2.388347e+00
  1.268874e+01    2.474970e+00
  1.279987e+01    2.703087e+00
  1.291100e+01    3.271310e+00
  1.302213e+01    6.167930e+00
  1.313326e+01    1.408173e+01
  1.324438e+01    1.044674e+01
  1.335551e+01    4.086906e+00
  1.346664e+01    2.763301e+00
  1.357777e+01    2.377061e+00
  1.368890e+01    2.245040e+00
  1.380003e+01    2.146285e+00
  1.391116e+01    2.075009e+00
  1.402229e+01    2.055083e+00
  1.413342e+01    2.006191e+00
  1.424455e+01    1.965854e+00
  1.435568e+01    1.949945e+00
  1.446680e+01    1.926315e+00
  1.457793e+01    1.922309e+00
  1.468906e+01    1.915013e+00
  1.480019e+01    1.894807e+00
  1.491132e+01    1.948362e+00
  1.502245e+01    2.247524e+00
  1.513358e+01    3.501967e+00
  1.524471e+01    5.401085e+00
  1.535584e+01    3.521385e+00
  1.546697e+01    2.136431e+00
  1.557809e+01    1.838289e+00
  1.568922e+01    1.737176e+00
  1.580035e+01    1.709020e+00
  1.591148e+01    1.630869e+00
  1.602261e+01    1.637633e+00
  1.613374e+01    1.594020e+00
  1.624487e+01    1.603485e+00
  1.635600e+01    1.530025e+00
  1.646713e+01    1.529090e+00
  1.657826e+01    1.514453e+00
  1.668938e+01    1.484884e+00
  1.680051e+01    1.478933e+00
  1.691164e+01    1.480881e+00
  1.702277e+01    1.428029e+00
  1.713390e+01    1.444706e+00
  1.724503e+01    1.424463e+00
  1.735616e+01    1.368192e+00
  1.746729e+01    1.385075e+00
  1.757842e+01    1.357639e+00
  1.768955e+01    1.300041e+00
  1.780067e+01    1.302387e+00
  1.791180e+01    1.300750e+00
  1.802293e+01    1.297189e+00
  1.813406e+01    1.292807e+00
  1.824519e+01    1.272036e+00
  1.835632e+01    1.242685e+00
  1.846745e+01    1.253637e+00
  1.857858e+01    1.258610e+00
  1.868971e+01    1.262514e+00
  1.880084e+01    1.229768e+00
  1.891196e+01    1.215446e+00
  1.902309e+01    1.218643e+00
  1.913422e+01    1.162101e+00
  1.924535e+01    1.195789e+00
  1.935648e+01    1.179426e+00
  1.946761e+01    1.155668e+00
  1.957874e+01    1.135866e+00
  1.968987e+01    1.159476e+00
  1.980100e+01    1.150256e+00
  1.991213e+01    1.162010e+00
  2.002325e+01    1.125045e+00
  2.013438e+01    1.114913e+00
  2.024551e+01    1.103224e+00
  2.035664e+01    1.088739e+00
  2.046777e+01    1.098261e+00
  2.057890e+01    1.080178e+00
  2.069003e+01    1.086931e+00
  2.080116e+01    1.077285e+00
  2.091229e+01    1.076808e+00
  2.102342e+01    1.082610e+00
  2.113455e+01    1.072614e+00
  2.124567e+01    1.093515e+00
  2.135680e+01    1.153844e+00
  2.146793e+01    1.216715e+00
  2.157906e+01    1.469491e+00
  2.169019e+01    2.344211e+00
  2.180132e+01    5.538888e+00
  2.191245e+01    8.640229e+00
  2.202358e+01    3.449121e+00
  2.213471e+01    1.728260e+00
  2.224584e+01    1.246643e+00
  2.235696e+01    1.104870e+00
  2.246809e+01    1.004574e+00
  2.257922e+01    9.728916e-01
  2.269035e+01    9.277226e-01
  2.280148e+01    9.380221e-01
  2.291261e+01    9.122842e-01
  2.302374e+01    8.946123e-01
  2.313487e+01    8.914241e-01
  2.324600e+01    8.839377e-01
  2.335713e+01    8.755465e-01
  2.346825e+01    8.445817e-01
  2.357938e+01    8.488186e-01
  2.369051e+01    8.497729e-01
  2.380164e+01    8.018535e-01
  2.391277e+01    8.106048e-01
  2.402390e+01    7.799047e-01
  2.413503e+01    7.813007e-01
  2.424616e+01    7.695487e-01
  2.435729e+01    7.918756e-01
  2.446842e+01    7.936099e-01
  2.457954e+01    7.849008e-01
  2.469067e+01    8.078649e-01
  2.480180e+01    7.951272e-01
  2.491293e+01    7.957356e-01
  2.502406e+01    7.937690e-01
  2.513519e+01    8.032061e-01
  2.524632e+01    8.376049e-01
  2.535745e+01    8.694580e-01
  2.546858e+01    9.433772e-01
  2.557971e+01    1.044014e+00
  2.569083e+01    1.397919e+00
  2.580196e+01    2.661595e+00
  2.591309e+01    6.190764e+00
  2.602422e+01    5.278468e+00
  2.613535e+01    2.032448e+00
  2.624648e+01    1.258959e+00
  2.635761e+01    9.948208e-01
  2.646874e+01    9.211470e-01
  2.657987e+01    8.889841e-01
  2.669100e+01    8.852789e-01
  2.680212e+01    9.061376e-01
  2.691325e+01    9.066441e-01
  2.702438e+01    1.066233e+00
  2.713551e+01    1.640672e+00
  2.724664e+01    2.057652e+00
  2.735777e+01    1.214172e+00
  2.746890e+01    9.357203e-01
  2.758003e+01    8.623079e-01
  2.769116e+01    8.270834e-01
  2.780229e+01    8.059859e-01
  2.791342e+01    8.184714e-01
  2.802454e+01    8.021837e-01
  2.813567e+01    7.770895e-01
  2.824680e+01    7.658110e-01
  2.835793e+01    7.674547e-01
  2.846906e+01    7.346432e-01
  2.858019e+01    7.436259e-01
  2.869132e+01    7.376115e-01
  2.880245e+01    7.411057e-01
  2.891358e+01    7.404941e-01
  2.902471e+01    7.358559e-01
  2.913583e+01    7.215896e-01
  2.924696e+01    7.307240e-01
  2.935809e+01    7.267083e-01
  2.946922e+01    7.138137e-01
  2.958035e+01    7.298689e-01
  2.969148e+01    7.280781e-01
  2.980261e+01    7.391034e-01
  2.991374e+01    7.142181e-01
  3.002487e+01    7.258260e-01
  3.013600e+01    7.070616e-01
  3.024712e+01    7.178650e-01
  3.035825e+01    6.993721e-01
  3.046938e+01    7.190367e-01
  3.058051e+01    7.032242e-01
  3.069164e+01    6.927181e-01
  3.080277e+01    7.151303e-01
  3.091390e+01    7.372255e-01
  3.102503e+01    7.014141e-01
  3.113616e+01    7.398532e-01
  3.124729e+01    7.515037e-01
  3.135841e+01    7.373300e-01
  3.146954e+01    7.615392e-01
  3.158067e+01    8.095608e-01
  3.169180e+01    9.593014e-01
  3.180293e+01    1.413170e+00
  3.191406e+01    2.131942e+00
  3.202519e+01    1.257305e+00
  3.213632e+01    8.742931e-01
  3.224745e+01    7.681664e-01
  3.235858e+01    7.591295e-01
  3.246970e+01    7.055511e-01
  3.254908e+01    7.306435e-01