File: XRD/Activation ramp/2024-07-27_002_Ru-CGO-ex_Activtation_ramp_000002_data_000147.dat
# == pyFAI calibration ==
# Distance Sample to Detector: 0.4 m
# PONI: 9.750e-02, 1.135e-01 m
# Rotations: -0.000175 0.000000 -0.000000 rad
#
# == Fit2d calibration ==
# Distance Sample-beamCenter: 400.000 mm
# Center: x=1514.000, y=1300.000 pix
# Tilt: 0.010 deg  TiltPlanRot: 0.010 deg
#
# Detector Detector	 Spline= None	 PixelSize= 7.500e-05, 7.500e-05 m
#    Detector has a mask: False
#    Detector has a dark current: False
#    detector has a flat field: False
#
# Wavelength: 6.888e-11 m
# Mask applied: user provided
# Dark current applied: False
# Flat field applied: False
# Polarization factor: 0.99
# Normalization factor: 1.0
# --> /home/myspot/data/2024_07_Rosario/Ru-CGO-ex/2024-07-27_002_Ru-CGO-ex_Activtation_ramp_000002_data_000147.dat
#       q_nm^-1             I
  2.003187e-02    0.000000e+00
  1.311609e-01    0.000000e+00
  2.422899e-01    3.298889e-03
  3.534189e-01    4.674930e-02
  4.645479e-01    5.612884e-02
  5.756770e-01    4.215885e-02
  6.868060e-01    4.493190e-02
  7.979350e-01    1.612469e-01
  9.090640e-01    5.592307e-01
  1.020193e+00    1.088638e+00
  1.131322e+00    1.502618e+00
  1.242451e+00    2.240017e+00
  1.353580e+00    2.587463e+00
  1.464709e+00    2.706530e+00
  1.575838e+00    3.085966e+00
  1.686967e+00    2.773591e+00
  1.798096e+00    2.792480e+00
  1.909225e+00    2.866282e+00
  2.020354e+00    2.695151e+00
  2.131483e+00    2.620461e+00
  2.242612e+00    2.723708e+00
  2.353741e+00    2.765627e+00
  2.464870e+00    2.747226e+00
  2.575999e+00    2.817266e+00
  2.687128e+00    2.760015e+00
  2.798257e+00    2.839816e+00
  2.909386e+00    2.869409e+00
  3.020515e+00    2.803840e+00
  3.131644e+00    2.899535e+00
  3.242773e+00    2.930684e+00
  3.353902e+00    2.940688e+00
  3.465031e+00    2.993069e+00
  3.576160e+00    2.964464e+00
  3.687289e+00    2.960728e+00
  3.798418e+00    2.972458e+00
  3.909547e+00    2.962422e+00
  4.020676e+00    3.004483e+00
  4.131806e+00    3.089291e+00
  4.242935e+00    3.065847e+00
  4.354064e+00    3.053877e+00
  4.465193e+00    3.105657e+00
  4.576322e+00    2.958370e+00
  4.687451e+00    3.073314e+00
  4.798580e+00    3.043834e+00
  4.909709e+00    3.206005e+00
  5.020838e+00    3.117554e+00
  5.131967e+00    3.124306e+00
  5.243096e+00    3.176241e+00
  5.354225e+00    3.186568e+00
  5.465354e+00    3.064095e+00
  5.576483e+00    3.050180e+00
  5.687612e+00    3.083663e+00
  5.798741e+00    3.018023e+00
  5.909870e+00    2.969123e+00
  6.020999e+00    2.994517e+00
  6.132128e+00    3.007682e+00
  6.243257e+00    3.047037e+00
  6.354386e+00    3.005130e+00
  6.465515e+00    3.028244e+00
  6.576644e+00    3.043222e+00
  6.687773e+00    3.099314e+00
  6.798902e+00    3.083451e+00
  6.910031e+00    3.098740e+00
  7.021160e+00    2.974672e+00
  7.132289e+00    3.027630e+00
  7.243418e+00    2.976217e+00
  7.354547e+00    3.008378e+00
  7.465676e+00    3.055116e+00
  7.576805e+00    3.047271e+00
  7.687934e+00    2.987290e+00
  7.799063e+00    2.926523e+00
  7.910192e+00    2.962455e+00
  8.021321e+00    2.940049e+00
  8.132450e+00    2.974293e+00
  8.243579e+00    3.015440e+00
  8.354708e+00    2.867087e+00
  8.465837e+00    2.916480e+00
  8.576966e+00    2.824498e+00
  8.688095e+00    2.850449e+00
  8.799224e+00    2.867804e+00
  8.910353e+00    2.840587e+00
  9.021482e+00    2.783079e+00
  9.132611e+00    2.784429e+00
  9.243740e+00    2.772370e+00
  9.354869e+00    2.781634e+00
  9.465998e+00    2.719387e+00
  9.577127e+00    2.769408e+00
  9.688256e+00    2.696769e+00
  9.799385e+00    2.755593e+00
  9.910514e+00    2.687453e+00
  1.002164e+01    2.660040e+00
  1.013277e+01    2.655860e+00
  1.024390e+01    2.587251e+00
  1.035503e+01    2.667428e+00
  1.046616e+01    2.567268e+00
  1.057729e+01    2.602647e+00
  1.068842e+01    2.599598e+00
  1.079955e+01    2.520495e+00
  1.091068e+01    2.542874e+00
  1.102180e+01    2.511831e+00
  1.113293e+01    2.464324e+00
  1.124406e+01    2.418355e+00
  1.135519e+01    2.439744e+00
  1.146632e+01    2.418731e+00
  1.157745e+01    2.460128e+00
  1.168858e+01    2.376004e+00
  1.179971e+01    2.366514e+00
  1.191084e+01    2.318339e+00
  1.202197e+01    2.326705e+00
  1.213309e+01    2.313478e+00
  1.224422e+01    2.313032e+00
  1.235535e+01    2.304185e+00
  1.246648e+01    2.325309e+00
  1.257761e+01    2.352437e+00
  1.268874e+01    2.460389e+00
  1.279987e+01    2.654723e+00
  1.291100e+01    3.391241e+00
  1.302213e+01    6.171446e+00
  1.313326e+01    1.450197e+01
  1.324438e+01    1.140682e+01
  1.335551e+01    4.246029e+00
  1.346664e+01    2.793246e+00
  1.357777e+01    2.413755e+00
  1.368890e+01    2.225005e+00
  1.380003e+01    2.120313e+00
  1.391116e+01    2.089810e+00
  1.402229e+01    2.086568e+00
  1.413342e+01    1.990968e+00
  1.424455e+01    1.968208e+00
  1.435568e+01    1.926274e+00
  1.446680e+01    1.935604e+00
  1.457793e+01    1.938187e+00
  1.468906e+01    1.874462e+00
  1.480019e+01    1.899686e+00
  1.491132e+01    1.991004e+00
  1.502245e+01    2.218065e+00
  1.513358e+01    3.407806e+00
  1.524471e+01    5.630682e+00
  1.535584e+01    3.740814e+00
  1.546697e+01    2.207930e+00
  1.557809e+01    1.870960e+00
  1.568922e+01    1.778797e+00
  1.580035e+01    1.688145e+00
  1.591148e+01    1.652680e+00
  1.602261e+01    1.594007e+00
  1.613374e+01    1.563749e+00
  1.624487e+01    1.580864e+00
  1.635600e+01    1.544992e+00
  1.646713e+01    1.534541e+00
  1.657826e+01    1.529022e+00
  1.668938e+01    1.495402e+00
  1.680051e+01    1.460885e+00
  1.691164e+01    1.435819e+00
  1.702277e+01    1.432657e+00
  1.713390e+01    1.428037e+00
  1.724503e+01    1.395552e+00
  1.735616e+01    1.373031e+00
  1.746729e+01    1.348660e+00
  1.757842e+01    1.341550e+00
  1.768955e+01    1.341057e+00
  1.780067e+01    1.321950e+00
  1.791180e+01    1.328672e+00
  1.802293e+01    1.275186e+00
  1.813406e+01    1.265585e+00
  1.824519e+01    1.283514e+00
  1.835632e+01    1.266190e+00
  1.846745e+01    1.241149e+00
  1.857858e+01    1.262153e+00
  1.868971e+01    1.236676e+00
  1.880084e+01    1.240841e+00
  1.891196e+01    1.228135e+00
  1.902309e+01    1.197748e+00
  1.913422e+01    1.182006e+00
  1.924535e+01    1.211143e+00
  1.935648e+01    1.165497e+00
  1.946761e+01    1.150519e+00
  1.957874e+01    1.153569e+00
  1.968987e+01    1.133327e+00
  1.980100e+01    1.126051e+00
  1.991213e+01    1.103148e+00
  2.002325e+01    1.132951e+00
  2.013438e+01    1.113259e+00
  2.024551e+01    1.093119e+00
  2.035664e+01    1.100721e+00
  2.046777e+01    1.099779e+00
  2.057890e+01    1.072004e+00
  2.069003e+01    1.074005e+00
  2.080116e+01    1.072600e+00
  2.091229e+01    1.063900e+00
  2.102342e+01    1.087383e+00
  2.113455e+01    1.087361e+00
  2.124567e+01    1.115335e+00
  2.135680e+01    1.140651e+00
  2.146793e+01    1.247978e+00
  2.157906e+01    1.482402e+00
  2.169019e+01    2.342347e+00
  2.180132e+01    5.555284e+00
  2.191245e+01    9.155021e+00
  2.202358e+01    3.711083e+00
  2.213471e+01    1.781085e+00
  2.224584e+01    1.295289e+00
  2.235696e+01    1.102396e+00
  2.246809e+01    1.035801e+00
  2.257922e+01    1.017699e+00
  2.269035e+01    9.568047e-01
  2.280148e+01    9.461853e-01
  2.291261e+01    8.953155e-01
  2.302374e+01    8.973381e-01
  2.313487e+01    8.835372e-01
  2.324600e+01    8.463993e-01
  2.335713e+01    8.518887e-01
  2.346825e+01    8.591042e-01
  2.357938e+01    8.262749e-01
  2.369051e+01    8.196534e-01
  2.380164e+01    8.072580e-01
  2.391277e+01    8.020406e-01
  2.402390e+01    7.926490e-01
  2.413503e+01    7.716826e-01
  2.424616e+01    7.831080e-01
  2.435729e+01    7.939255e-01
  2.446842e+01    7.808470e-01
  2.457954e+01    7.916495e-01
  2.469067e+01    7.876567e-01
  2.480180e+01    7.892646e-01
  2.491293e+01    7.758794e-01
  2.502406e+01    7.797654e-01
  2.513519e+01    8.197538e-01
  2.524632e+01    8.344160e-01
  2.535745e+01    8.873523e-01
  2.546858e+01    9.689168e-01
  2.557971e+01    1.056090e+00
  2.569083e+01    1.395192e+00
  2.580196e+01    2.644503e+00
  2.591309e+01    6.274065e+00
  2.602422e+01    5.902583e+00
  2.613535e+01    2.217116e+00
  2.624648e+01    1.316768e+00
  2.635761e+01    1.038590e+00
  2.646874e+01    9.544131e-01
  2.657987e+01    9.075719e-01
  2.669100e+01    8.879050e-01
  2.680212e+01    8.849524e-01
  2.691325e+01    9.263649e-01
  2.702438e+01    1.061993e+00
  2.713551e+01    1.618731e+00
  2.724664e+01    2.178448e+00
  2.735777e+01    1.260464e+00
  2.746890e+01    9.496567e-01
  2.758003e+01    8.918378e-01
  2.769116e+01    8.087830e-01
  2.780229e+01    7.920788e-01
  2.791342e+01    7.930298e-01
  2.802454e+01    7.722238e-01
  2.813567e+01    7.884573e-01
  2.824680e+01    7.657944e-01
  2.835793e+01    7.602915e-01
  2.846906e+01    7.589352e-01
  2.858019e+01    7.725355e-01
  2.869132e+01    7.316332e-01
  2.880245e+01    7.245641e-01
  2.891358e+01    7.363623e-01
  2.902471e+01    7.427773e-01
  2.913583e+01    7.339686e-01
  2.924696e+01    7.191561e-01
  2.935809e+01    7.086797e-01
  2.946922e+01    7.182664e-01
  2.958035e+01    7.300615e-01
  2.969148e+01    7.123158e-01
  2.980261e+01    7.179038e-01
  2.991374e+01    7.294543e-01
  3.002487e+01    7.263580e-01
  3.013600e+01    7.138242e-01
  3.024712e+01    6.919426e-01
  3.035825e+01    7.030017e-01
  3.046938e+01    6.995990e-01
  3.058051e+01    7.211668e-01
  3.069164e+01    7.305041e-01
  3.080277e+01    7.068921e-01
  3.091390e+01    7.186000e-01
  3.102503e+01    6.890934e-01
  3.113616e+01    7.126214e-01
  3.124729e+01    7.520790e-01
  3.135841e+01    7.308894e-01
  3.146954e+01    7.594590e-01
  3.158067e+01    7.759337e-01
  3.169180e+01    9.225137e-01
  3.180293e+01    1.391881e+00
  3.191406e+01    2.226032e+00
  3.202519e+01    1.381309e+00
  3.213632e+01    9.053410e-01
  3.224745e+01    7.894477e-01
  3.235858e+01    7.401116e-01
  3.246970e+01    7.309716e-01
  3.254908e+01    7.081121e-01