File: XRD/Activation ramp/2024-07-27_002_Ru-CGO-ex_Activtation_ramp_000002_data_000004.dat
# == pyFAI calibration ==
# Distance Sample to Detector: 0.4 m
# PONI: 9.750e-02, 1.135e-01 m
# Rotations: -0.000175 0.000000 -0.000000 rad
#
# == Fit2d calibration ==
# Distance Sample-beamCenter: 400.000 mm
# Center: x=1514.000, y=1300.000 pix
# Tilt: 0.010 deg  TiltPlanRot: 0.010 deg
#
# Detector Detector	 Spline= None	 PixelSize= 7.500e-05, 7.500e-05 m
#    Detector has a mask: False
#    Detector has a dark current: False
#    detector has a flat field: False
#
# Wavelength: 6.888e-11 m
# Mask applied: user provided
# Dark current applied: False
# Flat field applied: False
# Polarization factor: 0.99
# Normalization factor: 1.0
# --> /home/myspot/data/2024_07_Rosario/Ru-CGO-ex/2024-07-27_002_Ru-CGO-ex_Activtation_ramp_000002_data_000004.dat
#       q_nm^-1             I
  2.003187e-02    0.000000e+00
  1.311609e-01    3.476158e-03
  2.422899e-01    4.052259e-02
  3.534189e-01    4.354589e-02
  4.645479e-01    2.585787e-02
  5.756770e-01    4.348548e-02
  6.868060e-01    2.556384e-02
  7.979350e-01    2.004915e-01
  9.090640e-01    5.575834e-01
  1.020193e+00    1.166643e+00
  1.131322e+00    1.516069e+00
  1.242451e+00    2.407370e+00
  1.353580e+00    2.714544e+00
  1.464709e+00    2.734693e+00
  1.575838e+00    3.093984e+00
  1.686967e+00    2.971691e+00
  1.798096e+00    2.753875e+00
  1.909225e+00    2.863948e+00
  2.020354e+00    2.770479e+00
  2.131483e+00    2.812275e+00
  2.242612e+00    2.786131e+00
  2.353741e+00    2.722903e+00
  2.464870e+00    2.840928e+00
  2.575999e+00    2.884122e+00
  2.687128e+00    2.847924e+00
  2.798257e+00    2.887699e+00
  2.909386e+00    2.816404e+00
  3.020515e+00    2.930887e+00
  3.131644e+00    2.899375e+00
  3.242773e+00    3.058985e+00
  3.353902e+00    2.867872e+00
  3.465031e+00    2.964038e+00
  3.576160e+00    3.089926e+00
  3.687289e+00    3.116776e+00
  3.798418e+00    3.008263e+00
  3.909547e+00    3.125727e+00
  4.020676e+00    3.080651e+00
  4.131806e+00    3.029875e+00
  4.242935e+00    3.063910e+00
  4.354064e+00    3.067873e+00
  4.465193e+00    3.149020e+00
  4.576322e+00    3.159151e+00
  4.687451e+00    3.154065e+00
  4.798580e+00    3.122979e+00
  4.909709e+00    3.193407e+00
  5.020838e+00    3.120070e+00
  5.131967e+00    3.137766e+00
  5.243096e+00    3.193659e+00
  5.354225e+00    3.146010e+00
  5.465354e+00    3.106297e+00
  5.576483e+00    3.087005e+00
  5.687612e+00    3.042895e+00
  5.798741e+00    3.013660e+00
  5.909870e+00    3.175583e+00
  6.020999e+00    2.983440e+00
  6.132128e+00    3.191557e+00
  6.243257e+00    3.122200e+00
  6.354386e+00    3.121007e+00
  6.465515e+00    3.025329e+00
  6.576644e+00    3.016290e+00
  6.687773e+00    3.069194e+00
  6.798902e+00    3.039804e+00
  6.910031e+00    3.056291e+00
  7.021160e+00    3.095363e+00
  7.132289e+00    3.038138e+00
  7.243418e+00    3.054214e+00
  7.354547e+00    2.995044e+00
  7.465676e+00    2.951033e+00
  7.576805e+00    3.017666e+00
  7.687934e+00    3.011589e+00
  7.799063e+00    3.019992e+00
  7.910192e+00    2.980416e+00
  8.021321e+00    2.896883e+00
  8.132450e+00    2.873263e+00
  8.243579e+00    3.033774e+00
  8.354708e+00    2.969208e+00
  8.465837e+00    2.941040e+00
  8.576966e+00    2.896710e+00
  8.688095e+00    2.963590e+00
  8.799224e+00    2.873477e+00
  8.910353e+00    2.874946e+00
  9.021482e+00    2.806402e+00
  9.132611e+00    2.849694e+00
  9.243740e+00    2.873665e+00
  9.354869e+00    2.809192e+00
  9.465998e+00    2.789224e+00
  9.577127e+00    2.794043e+00
  9.688256e+00    2.821122e+00
  9.799385e+00    2.776983e+00
  9.910514e+00    2.698272e+00
  1.002164e+01    2.749527e+00
  1.013277e+01    2.720071e+00
  1.024390e+01    2.671540e+00
  1.035503e+01    2.653167e+00
  1.046616e+01    2.656593e+00
  1.057729e+01    2.599559e+00
  1.068842e+01    2.562310e+00
  1.079955e+01    2.548626e+00
  1.091068e+01    2.563157e+00
  1.102180e+01    2.506279e+00
  1.113293e+01    2.517770e+00
  1.124406e+01    2.479109e+00
  1.135519e+01    2.480253e+00
  1.146632e+01    2.433422e+00
  1.157745e+01    2.408159e+00
  1.168858e+01    2.391197e+00
  1.179971e+01    2.411404e+00
  1.191084e+01    2.371938e+00
  1.202197e+01    2.427603e+00
  1.213309e+01    2.356102e+00
  1.224422e+01    2.403008e+00
  1.235535e+01    2.401039e+00
  1.246648e+01    2.359538e+00
  1.257761e+01    2.393542e+00
  1.268874e+01    2.469115e+00
  1.279987e+01    2.691533e+00
  1.291100e+01    3.383112e+00
  1.302213e+01    5.837481e+00
  1.313326e+01    1.507581e+01
  1.324438e+01    1.698638e+01
  1.335551e+01    5.628239e+00
  1.346664e+01    3.229249e+00
  1.357777e+01    2.597270e+00
  1.368890e+01    2.366657e+00
  1.380003e+01    2.274260e+00
  1.391116e+01    2.150139e+00
  1.402229e+01    2.086668e+00
  1.413342e+01    2.054931e+00
  1.424455e+01    2.030566e+00
  1.435568e+01    1.982731e+00
  1.446680e+01    1.959072e+00
  1.457793e+01    1.924884e+00
  1.468906e+01    1.952500e+00
  1.480019e+01    1.938795e+00
  1.491132e+01    1.988671e+00
  1.502245e+01    2.209970e+00
  1.513358e+01    3.262934e+00
  1.524471e+01    6.066156e+00
  1.535584e+01    5.242016e+00
  1.546697e+01    2.509365e+00
  1.557809e+01    1.990720e+00
  1.568922e+01    1.828032e+00
  1.580035e+01    1.719297e+00
  1.591148e+01    1.679127e+00
  1.602261e+01    1.664845e+00
  1.613374e+01    1.597554e+00
  1.624487e+01    1.604097e+00
  1.635600e+01    1.569965e+00
  1.646713e+01    1.554247e+00
  1.657826e+01    1.520729e+00
  1.668938e+01    1.512862e+00
  1.680051e+01    1.470256e+00
  1.691164e+01    1.469939e+00
  1.702277e+01    1.474568e+00
  1.713390e+01    1.456713e+00
  1.724503e+01    1.414848e+00
  1.735616e+01    1.419994e+00
  1.746729e+01    1.385344e+00
  1.757842e+01    1.354434e+00
  1.768955e+01    1.372940e+00
  1.780067e+01    1.345644e+00
  1.791180e+01    1.344418e+00
  1.802293e+01    1.324919e+00
  1.813406e+01    1.338195e+00
  1.824519e+01    1.296996e+00
  1.835632e+01    1.290182e+00
  1.846745e+01    1.295016e+00
  1.857858e+01    1.266141e+00
  1.868971e+01    1.253266e+00
  1.880084e+01    1.283198e+00
  1.891196e+01    1.245386e+00
  1.902309e+01    1.199917e+00
  1.913422e+01    1.232322e+00
  1.924535e+01    1.221729e+00
  1.935648e+01    1.228886e+00
  1.946761e+01    1.203911e+00
  1.957874e+01    1.169297e+00
  1.968987e+01    1.155258e+00
  1.980100e+01    1.172982e+00
  1.991213e+01    1.121820e+00
  2.002325e+01    1.143635e+00
  2.013438e+01    1.132621e+00
  2.024551e+01    1.159969e+00
  2.035664e+01    1.101363e+00
  2.046777e+01    1.133080e+00
  2.057890e+01    1.111318e+00
  2.069003e+01    1.109430e+00
  2.080116e+01    1.092338e+00
  2.091229e+01    1.104143e+00
  2.102342e+01    1.118487e+00
  2.113455e+01    1.085846e+00
  2.124567e+01    1.138721e+00
  2.135680e+01    1.192407e+00
  2.146793e+01    1.248080e+00
  2.157906e+01    1.469902e+00
  2.169019e+01    2.099054e+00
  2.180132e+01    4.732229e+00
  2.191245e+01    1.064394e+01
  2.202358e+01    6.500776e+00
  2.213471e+01    2.449227e+00
  2.224584e+01    1.538064e+00
  2.235696e+01    1.248939e+00
  2.246809e+01    1.110505e+00
  2.257922e+01    1.058565e+00
  2.269035e+01    9.681723e-01
  2.280148e+01    9.484239e-01
  2.291261e+01    9.497615e-01
  2.302374e+01    9.231011e-01
  2.313487e+01    8.886899e-01
  2.324600e+01    9.139808e-01
  2.335713e+01    8.714805e-01
  2.346825e+01    8.636892e-01
  2.357938e+01    8.575198e-01
  2.369051e+01    8.527120e-01
  2.380164e+01    8.355710e-01
  2.391277e+01    8.314546e-01
  2.402390e+01    8.250673e-01
  2.413503e+01    7.895201e-01
  2.424616e+01    7.889913e-01
  2.435729e+01    8.035229e-01
  2.446842e+01    8.207794e-01
  2.457954e+01    8.277103e-01
  2.469067e+01    8.283268e-01
  2.480180e+01    8.199331e-01
  2.491293e+01    8.454274e-01
  2.502406e+01    8.059416e-01
  2.513519e+01    8.397733e-01
  2.524632e+01    8.865976e-01
  2.535745e+01    8.978719e-01
  2.546858e+01    9.628584e-01
  2.557971e+01    1.070001e+00
  2.569083e+01    1.304877e+00
  2.580196e+01    2.145530e+00
  2.591309e+01    5.397656e+00
  2.602422e+01    9.192108e+00
  2.613535e+01    3.822996e+00
  2.624648e+01    1.752201e+00
  2.635761e+01    1.211322e+00
  2.646874e+01    1.053065e+00
  2.657987e+01    9.549414e-01
  2.669100e+01    9.294742e-01
  2.680212e+01    9.271984e-01
  2.691325e+01    9.423007e-01
  2.702438e+01    1.041220e+00
  2.713551e+01    1.421364e+00
  2.724664e+01    2.533321e+00
  2.735777e+01    1.879635e+00
  2.746890e+01    1.135339e+00
  2.758003e+01    9.335251e-01
  2.769116e+01    8.803309e-01
  2.780229e+01    8.439154e-01
  2.791342e+01    8.265308e-01
  2.802454e+01    8.149089e-01
  2.813567e+01    8.126381e-01
  2.824680e+01    7.877458e-01
  2.835793e+01    7.808293e-01
  2.846906e+01    7.883923e-01
  2.858019e+01    7.809389e-01
  2.869132e+01    7.618783e-01
  2.880245e+01    7.843376e-01
  2.891358e+01    7.574235e-01
  2.902471e+01    7.559056e-01
  2.913583e+01    7.637639e-01
  2.924696e+01    7.468331e-01
  2.935809e+01    7.365344e-01
  2.946922e+01    7.560903e-01
  2.958035e+01    7.551315e-01
  2.969148e+01    7.517739e-01
  2.980261e+01    7.458276e-01
  2.991374e+01    7.309322e-01
  3.002487e+01    7.465019e-01
  3.013600e+01    7.306283e-01
  3.024712e+01    7.326369e-01
  3.035825e+01    7.163840e-01
  3.046938e+01    7.227476e-01
  3.058051e+01    7.353346e-01
  3.069164e+01    7.254816e-01
  3.080277e+01    7.343052e-01
  3.091390e+01    7.376708e-01
  3.102503e+01    7.239295e-01
  3.113616e+01    7.295566e-01
  3.124729e+01    7.386142e-01
  3.135841e+01    7.345338e-01
  3.146954e+01    8.046222e-01
  3.158067e+01    8.052023e-01
  3.169180e+01    8.768516e-01
  3.180293e+01    1.168596e+00
  3.191406e+01    2.159080e+00
  3.202519e+01    2.321237e+00
  3.213632e+01    1.199958e+00
  3.224745e+01    9.067016e-01
  3.235858e+01    7.996360e-01
  3.246970e+01    7.816294e-01
  3.254908e+01    7.530765e-01