File: XRD/Activation ramp/2024-07-27_002_Ru-CGO-ex_Activtation_ramp_000002_data_000078.dat
# == pyFAI calibration ==
# Distance Sample to Detector: 0.4 m
# PONI: 9.750e-02, 1.135e-01 m
# Rotations: -0.000175 0.000000 -0.000000 rad
#
# == Fit2d calibration ==
# Distance Sample-beamCenter: 400.000 mm
# Center: x=1514.000, y=1300.000 pix
# Tilt: 0.010 deg  TiltPlanRot: 0.010 deg
#
# Detector Detector	 Spline= None	 PixelSize= 7.500e-05, 7.500e-05 m
#    Detector has a mask: False
#    Detector has a dark current: False
#    detector has a flat field: False
#
# Wavelength: 6.888e-11 m
# Mask applied: user provided
# Dark current applied: False
# Flat field applied: False
# Polarization factor: 0.99
# Normalization factor: 1.0
# --> /home/myspot/data/2024_07_Rosario/Ru-CGO-ex/2024-07-27_002_Ru-CGO-ex_Activtation_ramp_000002_data_000078.dat
#       q_nm^-1             I
  2.003187e-02    0.000000e+00
  1.311609e-01    1.920634e-02
  2.422899e-01    2.531838e-02
  3.534189e-01    3.102380e-02
  4.645479e-01    6.272309e-02
  5.756770e-01    4.248493e-02
  6.868060e-01    2.846264e-02
  7.979350e-01    1.451200e-01
  9.090640e-01    5.304732e-01
  1.020193e+00    1.091766e+00
  1.131322e+00    1.508418e+00
  1.242451e+00    2.225929e+00
  1.353580e+00    2.578484e+00
  1.464709e+00    2.801127e+00
  1.575838e+00    3.043443e+00
  1.686967e+00    2.858465e+00
  1.798096e+00    2.827353e+00
  1.909225e+00    2.870879e+00
  2.020354e+00    2.797288e+00
  2.131483e+00    2.791557e+00
  2.242612e+00    2.769611e+00
  2.353741e+00    2.782450e+00
  2.464870e+00    2.705214e+00
  2.575999e+00    2.805451e+00
  2.687128e+00    2.795251e+00
  2.798257e+00    2.841825e+00
  2.909386e+00    2.824865e+00
  3.020515e+00    2.881889e+00
  3.131644e+00    2.932396e+00
  3.242773e+00    2.900736e+00
  3.353902e+00    2.861809e+00
  3.465031e+00    2.926468e+00
  3.576160e+00    2.947206e+00
  3.687289e+00    2.913030e+00
  3.798418e+00    2.936692e+00
  3.909547e+00    3.017259e+00
  4.020676e+00    3.038271e+00
  4.131806e+00    2.953943e+00
  4.242935e+00    2.938919e+00
  4.354064e+00    3.064741e+00
  4.465193e+00    3.049781e+00
  4.576322e+00    3.031756e+00
  4.687451e+00    3.030157e+00
  4.798580e+00    3.102093e+00
  4.909709e+00    3.129079e+00
  5.020838e+00    3.124822e+00
  5.131967e+00    3.150929e+00
  5.243096e+00    3.039545e+00
  5.354225e+00    3.143688e+00
  5.465354e+00    3.113418e+00
  5.576483e+00    3.095226e+00
  5.687612e+00    3.056466e+00
  5.798741e+00    3.006619e+00
  5.909870e+00    3.096006e+00
  6.020999e+00    3.025621e+00
  6.132128e+00    3.080789e+00
  6.243257e+00    3.020652e+00
  6.354386e+00    2.993382e+00
  6.465515e+00    3.015815e+00
  6.576644e+00    3.018554e+00
  6.687773e+00    2.992178e+00
  6.798902e+00    3.013345e+00
  6.910031e+00    3.091589e+00
  7.021160e+00    3.018858e+00
  7.132289e+00    2.998638e+00
  7.243418e+00    2.963457e+00
  7.354547e+00    2.965139e+00
  7.465676e+00    3.024877e+00
  7.576805e+00    2.914939e+00
  7.687934e+00    2.955310e+00
  7.799063e+00    2.930236e+00
  7.910192e+00    2.861028e+00
  8.021321e+00    2.931369e+00
  8.132450e+00    2.947227e+00
  8.243579e+00    3.003778e+00
  8.354708e+00    2.841294e+00
  8.465837e+00    2.931793e+00
  8.576966e+00    2.853083e+00
  8.688095e+00    2.899351e+00
  8.799224e+00    2.858717e+00
  8.910353e+00    2.818522e+00
  9.021482e+00    2.783822e+00
  9.132611e+00    2.831532e+00
  9.243740e+00    2.839860e+00
  9.354869e+00    2.773406e+00
  9.465998e+00    2.732963e+00
  9.577127e+00    2.753244e+00
  9.688256e+00    2.726800e+00
  9.799385e+00    2.692419e+00
  9.910514e+00    2.634020e+00
  1.002164e+01    2.691751e+00
  1.013277e+01    2.660115e+00
  1.024390e+01    2.668262e+00
  1.035503e+01    2.648031e+00
  1.046616e+01    2.526537e+00
  1.057729e+01    2.651465e+00
  1.068842e+01    2.568566e+00
  1.079955e+01    2.514682e+00
  1.091068e+01    2.509707e+00
  1.102180e+01    2.470638e+00
  1.113293e+01    2.399022e+00
  1.124406e+01    2.451477e+00
  1.135519e+01    2.419851e+00
  1.146632e+01    2.418935e+00
  1.157745e+01    2.409933e+00
  1.168858e+01    2.347998e+00
  1.179971e+01    2.341170e+00
  1.191084e+01    2.353679e+00
  1.202197e+01    2.332559e+00
  1.213309e+01    2.293980e+00
  1.224422e+01    2.303452e+00
  1.235535e+01    2.311775e+00
  1.246648e+01    2.297142e+00
  1.257761e+01    2.372064e+00
  1.268874e+01    2.427929e+00
  1.279987e+01    2.587666e+00
  1.291100e+01    3.225076e+00
  1.302213e+01    5.939906e+00
  1.313326e+01    1.474438e+01
  1.324438e+01    1.400691e+01
  1.335551e+01    4.797587e+00
  1.346664e+01    2.989786e+00
  1.357777e+01    2.501280e+00
  1.368890e+01    2.294060e+00
  1.380003e+01    2.176784e+00
  1.391116e+01    2.096791e+00
  1.402229e+01    2.081107e+00
  1.413342e+01    2.002366e+00
  1.424455e+01    1.953173e+00
  1.435568e+01    1.941275e+00
  1.446680e+01    1.929345e+00
  1.457793e+01    1.912645e+00
  1.468906e+01    1.903830e+00
  1.480019e+01    1.908956e+00
  1.491132e+01    1.936968e+00
  1.502245e+01    2.182255e+00
  1.513358e+01    3.338301e+00
  1.524471e+01    5.785211e+00
  1.535584e+01    4.406903e+00
  1.546697e+01    2.312296e+00
  1.557809e+01    1.918964e+00
  1.568922e+01    1.758015e+00
  1.580035e+01    1.696896e+00
  1.591148e+01    1.629536e+00
  1.602261e+01    1.616006e+00
  1.613374e+01    1.614029e+00
  1.624487e+01    1.541429e+00
  1.635600e+01    1.525238e+00
  1.646713e+01    1.565136e+00
  1.657826e+01    1.510924e+00
  1.668938e+01    1.479954e+00
  1.680051e+01    1.486042e+00
  1.691164e+01    1.461963e+00
  1.702277e+01    1.408774e+00
  1.713390e+01    1.410879e+00
  1.724503e+01    1.381576e+00
  1.735616e+01    1.409593e+00
  1.746729e+01    1.379621e+00
  1.757842e+01    1.369018e+00
  1.768955e+01    1.379429e+00
  1.780067e+01    1.342279e+00
  1.791180e+01    1.321575e+00
  1.802293e+01    1.320390e+00
  1.813406e+01    1.269882e+00
  1.824519e+01    1.286621e+00
  1.835632e+01    1.292043e+00
  1.846745e+01    1.263267e+00
  1.857858e+01    1.235483e+00
  1.868971e+01    1.192602e+00
  1.880084e+01    1.229024e+00
  1.891196e+01    1.215258e+00
  1.902309e+01    1.202846e+00
  1.913422e+01    1.211438e+00
  1.924535e+01    1.190333e+00
  1.935648e+01    1.160923e+00
  1.946761e+01    1.154140e+00
  1.957874e+01    1.158999e+00
  1.968987e+01    1.151869e+00
  1.980100e+01    1.150668e+00
  1.991213e+01    1.137792e+00
  2.002325e+01    1.122293e+00
  2.013438e+01    1.069547e+00
  2.024551e+01    1.094534e+00
  2.035664e+01    1.080823e+00
  2.046777e+01    1.114860e+00
  2.057890e+01    1.090138e+00
  2.069003e+01    1.070518e+00
  2.080116e+01    1.105248e+00
  2.091229e+01    1.076634e+00
  2.102342e+01    1.059851e+00
  2.113455e+01    1.065777e+00
  2.124567e+01    1.120526e+00
  2.135680e+01    1.159667e+00
  2.146793e+01    1.262835e+00
  2.157906e+01    1.447765e+00
  2.169019e+01    2.195683e+00
  2.180132e+01    5.154228e+00
  2.191245e+01    1.011939e+01
  2.202358e+01    4.865535e+00
  2.213471e+01    2.069764e+00
  2.224584e+01    1.390807e+00
  2.235696e+01    1.128680e+00
  2.246809e+01    1.084973e+00
  2.257922e+01    1.004129e+00
  2.269035e+01    9.855216e-01
  2.280148e+01    9.294925e-01
  2.291261e+01    9.264805e-01
  2.302374e+01    8.827615e-01
  2.313487e+01    8.905866e-01
  2.324600e+01    8.743981e-01
  2.335713e+01    8.695988e-01
  2.346825e+01    8.420333e-01
  2.357938e+01    8.380708e-01
  2.369051e+01    8.327755e-01
  2.380164e+01    8.208658e-01
  2.391277e+01    7.990745e-01
  2.402390e+01    8.047947e-01
  2.413503e+01    7.744523e-01
  2.424616e+01    8.000035e-01
  2.435729e+01    7.748496e-01
  2.446842e+01    7.982199e-01
  2.457954e+01    7.996649e-01
  2.469067e+01    7.847153e-01
  2.480180e+01    7.939345e-01
  2.491293e+01    7.981210e-01
  2.502406e+01    7.923985e-01
  2.513519e+01    8.155630e-01
  2.524632e+01    8.479494e-01
  2.535745e+01    8.788675e-01
  2.546858e+01    9.354277e-01
  2.557971e+01    1.073490e+00
  2.569083e+01    1.348525e+00
  2.580196e+01    2.386901e+00
  2.591309e+01    5.869818e+00
  2.602422e+01    7.683268e+00
  2.613535e+01    2.860456e+00
  2.624648e+01    1.499665e+00
  2.635761e+01    1.113227e+00
  2.646874e+01    9.787358e-01
  2.657987e+01    9.359480e-01
  2.669100e+01    9.013810e-01
  2.680212e+01    9.014403e-01
  2.691325e+01    9.116459e-01
  2.702438e+01    1.050001e+00
  2.713551e+01    1.522022e+00
  2.724664e+01    2.450050e+00
  2.735777e+01    1.542677e+00
  2.746890e+01    1.026135e+00
  2.758003e+01    8.860766e-01
  2.769116e+01    8.322359e-01
  2.780229e+01    8.329529e-01
  2.791342e+01    8.182788e-01
  2.802454e+01    8.079182e-01
  2.813567e+01    7.928632e-01
  2.824680e+01    7.768215e-01
  2.835793e+01    7.558138e-01
  2.846906e+01    7.669230e-01
  2.858019e+01    7.496468e-01
  2.869132e+01    7.611390e-01
  2.880245e+01    7.461188e-01
  2.891358e+01    7.546207e-01
  2.902471e+01    7.328720e-01
  2.913583e+01    7.578658e-01
  2.924696e+01    7.214764e-01
  2.935809e+01    7.463966e-01
  2.946922e+01    7.339557e-01
  2.958035e+01    7.108638e-01
  2.969148e+01    7.322785e-01
  2.980261e+01    7.207268e-01
  2.991374e+01    7.360624e-01
  3.002487e+01    7.284999e-01
  3.013600e+01    7.084607e-01
  3.024712e+01    7.232467e-01
  3.035825e+01    7.175936e-01
  3.046938e+01    7.219880e-01
  3.058051e+01    7.156031e-01
  3.069164e+01    7.326027e-01
  3.080277e+01    7.119724e-01
  3.091390e+01    7.306852e-01
  3.102503e+01    7.330569e-01
  3.113616e+01    7.083055e-01
  3.124729e+01    7.325007e-01
  3.135841e+01    7.351155e-01
  3.146954e+01    7.653725e-01
  3.158067e+01    8.195919e-01
  3.169180e+01    9.139975e-01
  3.180293e+01    1.234307e+00
  3.191406e+01    2.278173e+00
  3.202519e+01    1.756238e+00
  3.213632e+01    1.006805e+00
  3.224745e+01    8.068553e-01
  3.235858e+01    7.694107e-01
  3.246970e+01    7.489774e-01
  3.254908e+01    7.302670e-01