File: XRD/Activation ramp/2024-07-27_002_Ru-CGO-ex_Activtation_ramp_000002_data_000160.dat
# == pyFAI calibration ==
# Distance Sample to Detector: 0.4 m
# PONI: 9.750e-02, 1.135e-01 m
# Rotations: -0.000175 0.000000 -0.000000 rad
#
# == Fit2d calibration ==
# Distance Sample-beamCenter: 400.000 mm
# Center: x=1514.000, y=1300.000 pix
# Tilt: 0.010 deg  TiltPlanRot: 0.010 deg
#
# Detector Detector	 Spline= None	 PixelSize= 7.500e-05, 7.500e-05 m
#    Detector has a mask: False
#    Detector has a dark current: False
#    detector has a flat field: False
#
# Wavelength: 6.888e-11 m
# Mask applied: user provided
# Dark current applied: False
# Flat field applied: False
# Polarization factor: 0.99
# Normalization factor: 1.0
# --> /home/myspot/data/2024_07_Rosario/Ru-CGO-ex/2024-07-27_002_Ru-CGO-ex_Activtation_ramp_000002_data_000160.dat
#       q_nm^-1             I
  2.003187e-02    0.000000e+00
  1.311609e-01    7.378082e-02
  2.422899e-01    3.763464e-02
  3.534189e-01    3.229353e-02
  4.645479e-01    6.380991e-02
  5.756770e-01    4.218247e-02
  6.868060e-01    5.536010e-02
  7.979350e-01    1.136680e-01
  9.090640e-01    5.765984e-01
  1.020193e+00    1.034754e+00
  1.131322e+00    1.475115e+00
  1.242451e+00    2.240872e+00
  1.353580e+00    2.584753e+00
  1.464709e+00    2.743594e+00
  1.575838e+00    2.961566e+00
  1.686967e+00    2.809401e+00
  1.798096e+00    2.739182e+00
  1.909225e+00    2.711986e+00
  2.020354e+00    2.814239e+00
  2.131483e+00    2.737170e+00
  2.242612e+00    2.784727e+00
  2.353741e+00    2.799606e+00
  2.464870e+00    2.759156e+00
  2.575999e+00    2.741583e+00
  2.687128e+00    2.821517e+00
  2.798257e+00    2.831428e+00
  2.909386e+00    2.789509e+00
  3.020515e+00    2.993998e+00
  3.131644e+00    2.876235e+00
  3.242773e+00    2.993160e+00
  3.353902e+00    2.933053e+00
  3.465031e+00    2.931583e+00
  3.576160e+00    2.963943e+00
  3.687289e+00    3.003981e+00
  3.798418e+00    2.965636e+00
  3.909547e+00    3.018069e+00
  4.020676e+00    2.965272e+00
  4.131806e+00    3.004906e+00
  4.242935e+00    3.013708e+00
  4.354064e+00    3.049721e+00
  4.465193e+00    3.135120e+00
  4.576322e+00    3.081670e+00
  4.687451e+00    3.180184e+00
  4.798580e+00    3.046758e+00
  4.909709e+00    3.096673e+00
  5.020838e+00    3.140428e+00
  5.131967e+00    3.101258e+00
  5.243096e+00    3.222230e+00
  5.354225e+00    3.128465e+00
  5.465354e+00    3.058133e+00
  5.576483e+00    3.142919e+00
  5.687612e+00    3.135569e+00
  5.798741e+00    3.033987e+00
  5.909870e+00    3.044328e+00
  6.020999e+00    3.011611e+00
  6.132128e+00    3.056566e+00
  6.243257e+00    3.104797e+00
  6.354386e+00    3.032770e+00
  6.465515e+00    3.101070e+00
  6.576644e+00    3.103837e+00
  6.687773e+00    3.060462e+00
  6.798902e+00    3.075098e+00
  6.910031e+00    3.065206e+00
  7.021160e+00    2.999770e+00
  7.132289e+00    3.027101e+00
  7.243418e+00    3.008384e+00
  7.354547e+00    3.017018e+00
  7.465676e+00    3.023972e+00
  7.576805e+00    3.000096e+00
  7.687934e+00    2.988312e+00
  7.799063e+00    3.039265e+00
  7.910192e+00    2.947973e+00
  8.021321e+00    2.866459e+00
  8.132450e+00    2.971621e+00
  8.243579e+00    2.985677e+00
  8.354708e+00    2.951567e+00
  8.465837e+00    2.878493e+00
  8.576966e+00    2.873827e+00
  8.688095e+00    2.848345e+00
  8.799224e+00    2.827312e+00
  8.910353e+00    2.811384e+00
  9.021482e+00    2.817499e+00
  9.132611e+00    2.870638e+00
  9.243740e+00    2.769213e+00
  9.354869e+00    2.754358e+00
  9.465998e+00    2.758219e+00
  9.577127e+00    2.788578e+00
  9.688256e+00    2.778306e+00
  9.799385e+00    2.721525e+00
  9.910514e+00    2.713647e+00
  1.002164e+01    2.740123e+00
  1.013277e+01    2.641775e+00
  1.024390e+01    2.676422e+00
  1.035503e+01    2.604244e+00
  1.046616e+01    2.627173e+00
  1.057729e+01    2.599211e+00
  1.068842e+01    2.521726e+00
  1.079955e+01    2.505237e+00
  1.091068e+01    2.549791e+00
  1.102180e+01    2.483381e+00
  1.113293e+01    2.460640e+00
  1.124406e+01    2.490142e+00
  1.135519e+01    2.410447e+00
  1.146632e+01    2.437344e+00
  1.157745e+01    2.395852e+00
  1.168858e+01    2.354488e+00
  1.179971e+01    2.386744e+00
  1.191084e+01    2.341936e+00
  1.202197e+01    2.349281e+00
  1.213309e+01    2.355071e+00
  1.224422e+01    2.299513e+00
  1.235535e+01    2.311620e+00
  1.246648e+01    2.335086e+00
  1.257761e+01    2.380749e+00
  1.268874e+01    2.482365e+00
  1.279987e+01    2.615958e+00
  1.291100e+01    3.349067e+00
  1.302213e+01    6.333255e+00
  1.313326e+01    1.437671e+01
  1.324438e+01    1.062731e+01
  1.335551e+01    4.155023e+00
  1.346664e+01    2.814838e+00
  1.357777e+01    2.469496e+00
  1.368890e+01    2.255440e+00
  1.380003e+01    2.132859e+00
  1.391116e+01    2.068614e+00
  1.402229e+01    2.083692e+00
  1.413342e+01    2.051117e+00
  1.424455e+01    1.964667e+00
  1.435568e+01    1.942201e+00
  1.446680e+01    1.975353e+00
  1.457793e+01    1.922791e+00
  1.468906e+01    1.921975e+00
  1.480019e+01    1.926891e+00
  1.491132e+01    1.985685e+00
  1.502245e+01    2.230538e+00
  1.513358e+01    3.532946e+00
  1.524471e+01    5.555422e+00
  1.535584e+01    3.621487e+00
  1.546697e+01    2.203478e+00
  1.557809e+01    1.839756e+00
  1.568922e+01    1.742404e+00
  1.580035e+01    1.740547e+00
  1.591148e+01    1.667641e+00
  1.602261e+01    1.612114e+00
  1.613374e+01    1.596829e+00
  1.624487e+01    1.551314e+00
  1.635600e+01    1.553375e+00
  1.646713e+01    1.504979e+00
  1.657826e+01    1.508179e+00
  1.668938e+01    1.474667e+00
  1.680051e+01    1.503101e+00
  1.691164e+01    1.453628e+00
  1.702277e+01    1.412306e+00
  1.713390e+01    1.404931e+00
  1.724503e+01    1.439665e+00
  1.735616e+01    1.392987e+00
  1.746729e+01    1.380797e+00
  1.757842e+01    1.369485e+00
  1.768955e+01    1.356526e+00
  1.780067e+01    1.362180e+00
  1.791180e+01    1.314534e+00
  1.802293e+01    1.312016e+00
  1.813406e+01    1.278942e+00
  1.824519e+01    1.312070e+00
  1.835632e+01    1.298817e+00
  1.846745e+01    1.244230e+00
  1.857858e+01    1.273732e+00
  1.868971e+01    1.241384e+00
  1.880084e+01    1.211616e+00
  1.891196e+01    1.208215e+00
  1.902309e+01    1.235220e+00
  1.913422e+01    1.189003e+00
  1.924535e+01    1.191259e+00
  1.935648e+01    1.163858e+00
  1.946761e+01    1.177384e+00
  1.957874e+01    1.177648e+00
  1.968987e+01    1.170122e+00
  1.980100e+01    1.134932e+00
  1.991213e+01    1.128855e+00
  2.002325e+01    1.123627e+00
  2.013438e+01    1.122686e+00
  2.024551e+01    1.089078e+00
  2.035664e+01    1.089542e+00
  2.046777e+01    1.100884e+00
  2.057890e+01    1.065936e+00
  2.069003e+01    1.098518e+00
  2.080116e+01    1.072865e+00
  2.091229e+01    1.101371e+00
  2.102342e+01    1.105648e+00
  2.113455e+01    1.104201e+00
  2.124567e+01    1.120289e+00
  2.135680e+01    1.139453e+00
  2.146793e+01    1.210289e+00
  2.157906e+01    1.502275e+00
  2.169019e+01    2.431290e+00
  2.180132e+01    5.738050e+00
  2.191245e+01    8.827253e+00
  2.202358e+01    3.468043e+00
  2.213471e+01    1.729631e+00
  2.224584e+01    1.274475e+00
  2.235696e+01    1.120288e+00
  2.246809e+01    1.019625e+00
  2.257922e+01    9.709076e-01
  2.269035e+01    9.519997e-01
  2.280148e+01    9.361677e-01
  2.291261e+01    9.238405e-01
  2.302374e+01    8.870040e-01
  2.313487e+01    8.959053e-01
  2.324600e+01    8.658580e-01
  2.335713e+01    8.796226e-01
  2.346825e+01    8.700334e-01
  2.357938e+01    8.485903e-01
  2.369051e+01    8.185358e-01
  2.380164e+01    8.187828e-01
  2.391277e+01    8.241752e-01
  2.402390e+01    7.984139e-01
  2.413503e+01    7.884332e-01
  2.424616e+01    7.625291e-01
  2.435729e+01    7.782521e-01
  2.446842e+01    7.874392e-01
  2.457954e+01    8.133150e-01
  2.469067e+01    7.928761e-01
  2.480180e+01    7.777915e-01
  2.491293e+01    7.963764e-01
  2.502406e+01    8.045704e-01
  2.513519e+01    8.212540e-01
  2.524632e+01    8.586786e-01
  2.535745e+01    9.040174e-01
  2.546858e+01    9.675267e-01
  2.557971e+01    1.096179e+00
  2.569083e+01    1.456651e+00
  2.580196e+01    2.795798e+00
  2.591309e+01    6.434696e+00
  2.602422e+01    5.362870e+00
  2.613535e+01    2.078646e+00
  2.624648e+01    1.251264e+00
  2.635761e+01    1.009858e+00
  2.646874e+01    9.290493e-01
  2.657987e+01    8.947142e-01
  2.669100e+01    8.759627e-01
  2.680212e+01    9.037611e-01
  2.691325e+01    9.156207e-01
  2.702438e+01    1.083030e+00
  2.713551e+01    1.669145e+00
  2.724664e+01    2.142407e+00
  2.735777e+01    1.215946e+00
  2.746890e+01    9.369568e-01
  2.758003e+01    8.570441e-01
  2.769116e+01    8.060721e-01
  2.780229e+01    8.051922e-01
  2.791342e+01    7.924925e-01
  2.802454e+01    7.672858e-01
  2.813567e+01    7.665761e-01
  2.824680e+01    7.736452e-01
  2.835793e+01    7.582080e-01
  2.846906e+01    7.605499e-01
  2.858019e+01    7.548983e-01
  2.869132e+01    7.542103e-01
  2.880245e+01    7.590538e-01
  2.891358e+01    7.653427e-01
  2.902471e+01    7.283515e-01
  2.913583e+01    7.525401e-01
  2.924696e+01    7.211983e-01
  2.935809e+01    7.378318e-01
  2.946922e+01    7.535947e-01
  2.958035e+01    7.184783e-01
  2.969148e+01    7.148015e-01
  2.980261e+01    7.158833e-01
  2.991374e+01    7.244371e-01
  3.002487e+01    7.349997e-01
  3.013600e+01    7.078669e-01
  3.024712e+01    7.067264e-01
  3.035825e+01    7.159649e-01
  3.046938e+01    6.951349e-01
  3.058051e+01    7.185845e-01
  3.069164e+01    7.091219e-01
  3.080277e+01    7.095684e-01
  3.091390e+01    7.206332e-01
  3.102503e+01    7.067201e-01
  3.113616e+01    7.023758e-01
  3.124729e+01    7.328341e-01
  3.135841e+01    7.386762e-01
  3.146954e+01    7.705462e-01
  3.158067e+01    8.162149e-01
  3.169180e+01    9.622450e-01
  3.180293e+01    1.459466e+00
  3.191406e+01    2.167679e+00
  3.202519e+01    1.259319e+00
  3.213632e+01    8.758475e-01
  3.224745e+01    7.775239e-01
  3.235858e+01    7.458068e-01
  3.246970e+01    7.069144e-01
  3.254908e+01    7.248644e-01