File: XRD/Activation ramp/2024-07-27_002_Ru-CGO-ex_Activtation_ramp_000002_data_000048.dat
# == pyFAI calibration ==
# Distance Sample to Detector: 0.4 m
# PONI: 9.750e-02, 1.135e-01 m
# Rotations: -0.000175 0.000000 -0.000000 rad
#
# == Fit2d calibration ==
# Distance Sample-beamCenter: 400.000 mm
# Center: x=1514.000, y=1300.000 pix
# Tilt: 0.010 deg  TiltPlanRot: 0.010 deg
#
# Detector Detector	 Spline= None	 PixelSize= 7.500e-05, 7.500e-05 m
#    Detector has a mask: False
#    Detector has a dark current: False
#    detector has a flat field: False
#
# Wavelength: 6.888e-11 m
# Mask applied: user provided
# Dark current applied: False
# Flat field applied: False
# Polarization factor: 0.99
# Normalization factor: 1.0
# --> /home/myspot/data/2024_07_Rosario/Ru-CGO-ex/2024-07-27_002_Ru-CGO-ex_Activtation_ramp_000002_data_000048.dat
#       q_nm^-1             I
  2.003187e-02    0.000000e+00
  1.311609e-01    0.000000e+00
  2.422899e-01    3.856483e-02
  3.534189e-01    1.602825e-02
  4.645479e-01    4.780471e-02
  5.756770e-01    6.754580e-03
  6.868060e-01    3.951113e-02
  7.979350e-01    1.572646e-01
  9.090640e-01    6.148316e-01
  1.020193e+00    1.144113e+00
  1.131322e+00    1.473593e+00
  1.242451e+00    2.077722e+00
  1.353580e+00    2.566478e+00
  1.464709e+00    2.818928e+00
  1.575838e+00    2.989174e+00
  1.686967e+00    2.901924e+00
  1.798096e+00    2.863292e+00
  1.909225e+00    2.817906e+00
  2.020354e+00    2.719783e+00
  2.131483e+00    2.752463e+00
  2.242612e+00    2.825053e+00
  2.353741e+00    2.887583e+00
  2.464870e+00    2.775906e+00
  2.575999e+00    2.761043e+00
  2.687128e+00    2.843731e+00
  2.798257e+00    2.908311e+00
  2.909386e+00    3.013743e+00
  3.020515e+00    2.870584e+00
  3.131644e+00    2.930878e+00
  3.242773e+00    2.880794e+00
  3.353902e+00    2.908226e+00
  3.465031e+00    2.873265e+00
  3.576160e+00    2.977247e+00
  3.687289e+00    2.888854e+00
  3.798418e+00    3.094234e+00
  3.909547e+00    3.037892e+00
  4.020676e+00    3.012952e+00
  4.131806e+00    3.021590e+00
  4.242935e+00    3.043780e+00
  4.354064e+00    3.025207e+00
  4.465193e+00    3.043736e+00
  4.576322e+00    3.025306e+00
  4.687451e+00    3.188413e+00
  4.798580e+00    3.097882e+00
  4.909709e+00    3.083702e+00
  5.020838e+00    3.039795e+00
  5.131967e+00    3.092252e+00
  5.243096e+00    3.105996e+00
  5.354225e+00    3.121268e+00
  5.465354e+00    3.007113e+00
  5.576483e+00    3.031631e+00
  5.687612e+00    3.081726e+00
  5.798741e+00    3.044912e+00
  5.909870e+00    3.029444e+00
  6.020999e+00    2.988555e+00
  6.132128e+00    3.120778e+00
  6.243257e+00    3.065804e+00
  6.354386e+00    2.980269e+00
  6.465515e+00    2.957433e+00
  6.576644e+00    3.070184e+00
  6.687773e+00    3.045605e+00
  6.798902e+00    2.998462e+00
  6.910031e+00    3.092844e+00
  7.021160e+00    2.959995e+00
  7.132289e+00    2.993949e+00
  7.243418e+00    2.966234e+00
  7.354547e+00    3.001119e+00
  7.465676e+00    2.962537e+00
  7.576805e+00    2.918773e+00
  7.687934e+00    2.972953e+00
  7.799063e+00    2.973723e+00
  7.910192e+00    2.958912e+00
  8.021321e+00    2.935269e+00
  8.132450e+00    2.914119e+00
  8.243579e+00    2.939481e+00
  8.354708e+00    2.888982e+00
  8.465837e+00    2.903352e+00
  8.576966e+00    2.831781e+00
  8.688095e+00    2.854154e+00
  8.799224e+00    2.852530e+00
  8.910353e+00    2.832869e+00
  9.021482e+00    2.820340e+00
  9.132611e+00    2.875131e+00
  9.243740e+00    2.782519e+00
  9.354869e+00    2.811463e+00
  9.465998e+00    2.715108e+00
  9.577127e+00    2.813181e+00
  9.688256e+00    2.743506e+00
  9.799385e+00    2.757416e+00
  9.910514e+00    2.708118e+00
  1.002164e+01    2.666938e+00
  1.013277e+01    2.621735e+00
  1.024390e+01    2.618140e+00
  1.035503e+01    2.648783e+00
  1.046616e+01    2.598711e+00
  1.057729e+01    2.606606e+00
  1.068842e+01    2.571377e+00
  1.079955e+01    2.571270e+00
  1.091068e+01    2.492613e+00
  1.102180e+01    2.518270e+00
  1.113293e+01    2.436810e+00
  1.124406e+01    2.412305e+00
  1.135519e+01    2.419390e+00
  1.146632e+01    2.414545e+00
  1.157745e+01    2.349559e+00
  1.168858e+01    2.386250e+00
  1.179971e+01    2.340480e+00
  1.191084e+01    2.317070e+00
  1.202197e+01    2.313833e+00
  1.213309e+01    2.343588e+00
  1.224422e+01    2.357646e+00
  1.235535e+01    2.304777e+00
  1.246648e+01    2.344691e+00
  1.257761e+01    2.388289e+00
  1.268874e+01    2.496582e+00
  1.279987e+01    2.655902e+00
  1.291100e+01    3.265855e+00
  1.302213e+01    5.854113e+00
  1.313326e+01    1.486690e+01
  1.324438e+01    1.517212e+01
  1.335551e+01    5.117405e+00
  1.346664e+01    3.046383e+00
  1.357777e+01    2.540424e+00
  1.368890e+01    2.283053e+00
  1.380003e+01    2.192527e+00
  1.391116e+01    2.101003e+00
  1.402229e+01    2.057062e+00
  1.413342e+01    2.042689e+00
  1.424455e+01    2.000853e+00
  1.435568e+01    1.944514e+00
  1.446680e+01    1.966823e+00
  1.457793e+01    1.909634e+00
  1.468906e+01    1.899273e+00
  1.480019e+01    1.898851e+00
  1.491132e+01    1.943332e+00
  1.502245e+01    2.221568e+00
  1.513358e+01    3.257415e+00
  1.524471e+01    5.860974e+00
  1.535584e+01    4.757643e+00
  1.546697e+01    2.411180e+00
  1.557809e+01    1.950865e+00
  1.568922e+01    1.797864e+00
  1.580035e+01    1.722011e+00
  1.591148e+01    1.687000e+00
  1.602261e+01    1.596801e+00
  1.613374e+01    1.634655e+00
  1.624487e+01    1.590621e+00
  1.635600e+01    1.543869e+00
  1.646713e+01    1.504750e+00
  1.657826e+01    1.497420e+00
  1.668938e+01    1.499620e+00
  1.680051e+01    1.459576e+00
  1.691164e+01    1.468098e+00
  1.702277e+01    1.419868e+00
  1.713390e+01    1.438293e+00
  1.724503e+01    1.393856e+00
  1.735616e+01    1.371707e+00
  1.746729e+01    1.346027e+00
  1.757842e+01    1.375362e+00
  1.768955e+01    1.342028e+00
  1.780067e+01    1.327510e+00
  1.791180e+01    1.307963e+00
  1.802293e+01    1.317949e+00
  1.813406e+01    1.275116e+00
  1.824519e+01    1.276394e+00
  1.835632e+01    1.235310e+00
  1.846745e+01    1.264073e+00
  1.857858e+01    1.275330e+00
  1.868971e+01    1.217904e+00
  1.880084e+01    1.234322e+00
  1.891196e+01    1.205052e+00
  1.902309e+01    1.198633e+00
  1.913422e+01    1.190472e+00
  1.924535e+01    1.179179e+00
  1.935648e+01    1.171095e+00
  1.946761e+01    1.174366e+00
  1.957874e+01    1.171591e+00
  1.968987e+01    1.154988e+00
  1.980100e+01    1.136035e+00
  1.991213e+01    1.144796e+00
  2.002325e+01    1.151492e+00
  2.013438e+01    1.127273e+00
  2.024551e+01    1.086079e+00
  2.035664e+01    1.095010e+00
  2.046777e+01    1.109357e+00
  2.057890e+01    1.070775e+00
  2.069003e+01    1.084954e+00
  2.080116e+01    1.069249e+00
  2.091229e+01    1.088614e+00
  2.102342e+01    1.103677e+00
  2.113455e+01    1.066188e+00
  2.124567e+01    1.133226e+00
  2.135680e+01    1.153979e+00
  2.146793e+01    1.251676e+00
  2.157906e+01    1.436469e+00
  2.169019e+01    2.111934e+00
  2.180132e+01    5.039649e+00
  2.191245e+01    1.040547e+01
  2.202358e+01    5.469402e+00
  2.213471e+01    2.169417e+00
  2.224584e+01    1.446778e+00
  2.235696e+01    1.192030e+00
  2.246809e+01    1.065172e+00
  2.257922e+01    1.009755e+00
  2.269035e+01    9.608237e-01
  2.280148e+01    9.462806e-01
  2.291261e+01    9.170263e-01
  2.302374e+01    8.958738e-01
  2.313487e+01    8.953980e-01
  2.324600e+01    8.830583e-01
  2.335713e+01    8.497794e-01
  2.346825e+01    8.590435e-01
  2.357938e+01    8.424200e-01
  2.369051e+01    8.353000e-01
  2.380164e+01    7.973401e-01
  2.391277e+01    7.926086e-01
  2.402390e+01    7.818747e-01
  2.413503e+01    7.877139e-01
  2.424616e+01    7.881009e-01
  2.435729e+01    7.966770e-01
  2.446842e+01    8.091191e-01
  2.457954e+01    7.863669e-01
  2.469067e+01    8.023724e-01
  2.480180e+01    7.991613e-01
  2.491293e+01    7.981839e-01
  2.502406e+01    8.128107e-01
  2.513519e+01    8.095391e-01
  2.524632e+01    8.421593e-01
  2.535745e+01    8.923203e-01
  2.546858e+01    9.595091e-01
  2.557971e+01    1.048380e+00
  2.569083e+01    1.343586e+00
  2.580196e+01    2.244446e+00
  2.591309e+01    5.697093e+00
  2.602422e+01    8.341420e+00
  2.613535e+01    3.185277e+00
  2.624648e+01    1.607783e+00
  2.635761e+01    1.136429e+00
  2.646874e+01    9.875580e-01
  2.657987e+01    9.567542e-01
  2.669100e+01    9.209118e-01
  2.680212e+01    9.245184e-01
  2.691325e+01    9.437553e-01
  2.702438e+01    1.053574e+00
  2.713551e+01    1.476890e+00
  2.724664e+01    2.530865e+00
  2.735777e+01    1.645854e+00
  2.746890e+01    1.055782e+00
  2.758003e+01    8.966445e-01
  2.769116e+01    8.782811e-01
  2.780229e+01    8.293589e-01
  2.791342e+01    7.932401e-01
  2.802454e+01    7.979476e-01
  2.813567e+01    7.722594e-01
  2.824680e+01    8.143688e-01
  2.835793e+01    7.937887e-01
  2.846906e+01    7.687386e-01
  2.858019e+01    7.771315e-01
  2.869132e+01    7.678140e-01
  2.880245e+01    7.536055e-01
  2.891358e+01    7.563049e-01
  2.902471e+01    7.381595e-01
  2.913583e+01    7.711706e-01
  2.924696e+01    7.490273e-01
  2.935809e+01    7.381233e-01
  2.946922e+01    7.186419e-01
  2.958035e+01    7.540787e-01
  2.969148e+01    7.141376e-01
  2.980261e+01    7.239841e-01
  2.991374e+01    7.252281e-01
  3.002487e+01    7.400876e-01
  3.013600e+01    7.128221e-01
  3.024712e+01    7.042976e-01
  3.035825e+01    7.254553e-01
  3.046938e+01    7.160926e-01
  3.058051e+01    7.063555e-01
  3.069164e+01    7.469651e-01
  3.080277e+01    7.228030e-01
  3.091390e+01    7.264196e-01
  3.102503e+01    7.098951e-01
  3.113616e+01    7.431417e-01
  3.124729e+01    7.408286e-01
  3.135841e+01    7.118375e-01
  3.146954e+01    7.701369e-01
  3.158067e+01    8.020268e-01
  3.169180e+01    8.737956e-01
  3.180293e+01    1.209607e+00
  3.191406e+01    2.231877e+00
  3.202519e+01    1.946744e+00
  3.213632e+01    1.044039e+00
  3.224745e+01    8.432294e-01
  3.235858e+01    7.663531e-01
  3.246970e+01    7.533613e-01
  3.254908e+01    7.279778e-01