File: XRD/Activation ramp/2024-07-27_002_Ru-CGO-ex_Activtation_ramp_000002_data_000053.dat
# == pyFAI calibration ==
# Distance Sample to Detector: 0.4 m
# PONI: 9.750e-02, 1.135e-01 m
# Rotations: -0.000175 0.000000 -0.000000 rad
#
# == Fit2d calibration ==
# Distance Sample-beamCenter: 400.000 mm
# Center: x=1514.000, y=1300.000 pix
# Tilt: 0.010 deg  TiltPlanRot: 0.010 deg
#
# Detector Detector	 Spline= None	 PixelSize= 7.500e-05, 7.500e-05 m
#    Detector has a mask: False
#    Detector has a dark current: False
#    detector has a flat field: False
#
# Wavelength: 6.888e-11 m
# Mask applied: user provided
# Dark current applied: False
# Flat field applied: False
# Polarization factor: 0.99
# Normalization factor: 1.0
# --> /home/myspot/data/2024_07_Rosario/Ru-CGO-ex/2024-07-27_002_Ru-CGO-ex_Activtation_ramp_000002_data_000053.dat
#       q_nm^-1             I
  2.003187e-02    0.000000e+00
  1.311609e-01    8.087413e-02
  2.422899e-01    1.443815e-03
  3.534189e-01    1.714182e-02
  4.645479e-01    4.448924e-02
  5.756770e-01    5.699238e-02
  6.868060e-01    2.952813e-02
  7.979350e-01    1.417146e-01
  9.090640e-01    6.598365e-01
  1.020193e+00    1.182826e+00
  1.131322e+00    1.471589e+00
  1.242451e+00    2.250261e+00
  1.353580e+00    2.574577e+00
  1.464709e+00    2.877947e+00
  1.575838e+00    3.099780e+00
  1.686967e+00    2.799801e+00
  1.798096e+00    2.907437e+00
  1.909225e+00    2.707657e+00
  2.020354e+00    2.788883e+00
  2.131483e+00    2.820883e+00
  2.242612e+00    2.831572e+00
  2.353741e+00    2.809415e+00
  2.464870e+00    2.791770e+00
  2.575999e+00    2.856678e+00
  2.687128e+00    2.832708e+00
  2.798257e+00    2.991039e+00
  2.909386e+00    2.973178e+00
  3.020515e+00    2.856484e+00
  3.131644e+00    2.856581e+00
  3.242773e+00    2.836549e+00
  3.353902e+00    3.053045e+00
  3.465031e+00    2.974024e+00
  3.576160e+00    3.039832e+00
  3.687289e+00    2.941199e+00
  3.798418e+00    3.014880e+00
  3.909547e+00    2.992495e+00
  4.020676e+00    3.060103e+00
  4.131806e+00    3.097662e+00
  4.242935e+00    3.134404e+00
  4.354064e+00    3.068504e+00
  4.465193e+00    3.155400e+00
  4.576322e+00    3.070003e+00
  4.687451e+00    3.164263e+00
  4.798580e+00    3.200131e+00
  4.909709e+00    3.106103e+00
  5.020838e+00    3.191211e+00
  5.131967e+00    3.142717e+00
  5.243096e+00    3.117462e+00
  5.354225e+00    3.183020e+00
  5.465354e+00    3.053230e+00
  5.576483e+00    2.955413e+00
  5.687612e+00    3.103865e+00
  5.798741e+00    3.082057e+00
  5.909870e+00    3.019513e+00
  6.020999e+00    3.036791e+00
  6.132128e+00    3.017984e+00
  6.243257e+00    3.081739e+00
  6.354386e+00    3.047889e+00
  6.465515e+00    3.104585e+00
  6.576644e+00    3.140280e+00
  6.687773e+00    3.035599e+00
  6.798902e+00    3.035398e+00
  6.910031e+00    3.097665e+00
  7.021160e+00    3.023780e+00
  7.132289e+00    3.048055e+00
  7.243418e+00    3.014136e+00
  7.354547e+00    2.992272e+00
  7.465676e+00    2.973183e+00
  7.576805e+00    2.969563e+00
  7.687934e+00    3.029385e+00
  7.799063e+00    2.965916e+00
  7.910192e+00    2.896047e+00
  8.021321e+00    2.953552e+00
  8.132450e+00    2.985564e+00
  8.243579e+00    2.973938e+00
  8.354708e+00    2.899764e+00
  8.465837e+00    2.903812e+00
  8.576966e+00    2.881936e+00
  8.688095e+00    2.826644e+00
  8.799224e+00    2.804944e+00
  8.910353e+00    2.833403e+00
  9.021482e+00    2.811448e+00
  9.132611e+00    2.882422e+00
  9.243740e+00    2.822647e+00
  9.354869e+00    2.786354e+00
  9.465998e+00    2.764805e+00
  9.577127e+00    2.752828e+00
  9.688256e+00    2.793013e+00
  9.799385e+00    2.775902e+00
  9.910514e+00    2.705827e+00
  1.002164e+01    2.645772e+00
  1.013277e+01    2.675945e+00
  1.024390e+01    2.625722e+00
  1.035503e+01    2.696347e+00
  1.046616e+01    2.635776e+00
  1.057729e+01    2.583057e+00
  1.068842e+01    2.579320e+00
  1.079955e+01    2.511210e+00
  1.091068e+01    2.534862e+00
  1.102180e+01    2.524587e+00
  1.113293e+01    2.458284e+00
  1.124406e+01    2.458956e+00
  1.135519e+01    2.447194e+00
  1.146632e+01    2.445143e+00
  1.157745e+01    2.410930e+00
  1.168858e+01    2.382932e+00
  1.179971e+01    2.387239e+00
  1.191084e+01    2.329453e+00
  1.202197e+01    2.306802e+00
  1.213309e+01    2.382933e+00
  1.224422e+01    2.353293e+00
  1.235535e+01    2.330166e+00
  1.246648e+01    2.374021e+00
  1.257761e+01    2.430043e+00
  1.268874e+01    2.482855e+00
  1.279987e+01    2.726726e+00
  1.291100e+01    3.328863e+00
  1.302213e+01    5.948199e+00
  1.313326e+01    1.500525e+01
  1.324438e+01    1.508393e+01
  1.335551e+01    5.136565e+00
  1.346664e+01    3.156639e+00
  1.357777e+01    2.547569e+00
  1.368890e+01    2.338141e+00
  1.380003e+01    2.214787e+00
  1.391116e+01    2.129201e+00
  1.402229e+01    2.052511e+00
  1.413342e+01    2.032573e+00
  1.424455e+01    1.998181e+00
  1.435568e+01    2.029708e+00
  1.446680e+01    1.979605e+00
  1.457793e+01    1.949487e+00
  1.468906e+01    1.914443e+00
  1.480019e+01    1.947649e+00
  1.491132e+01    1.971744e+00
  1.502245e+01    2.219851e+00
  1.513358e+01    3.266400e+00
  1.524471e+01    5.939561e+00
  1.535584e+01    4.755746e+00
  1.546697e+01    2.415617e+00
  1.557809e+01    1.961432e+00
  1.568922e+01    1.795359e+00
  1.580035e+01    1.691412e+00
  1.591148e+01    1.662816e+00
  1.602261e+01    1.613130e+00
  1.613374e+01    1.606838e+00
  1.624487e+01    1.587733e+00
  1.635600e+01    1.562934e+00
  1.646713e+01    1.525950e+00
  1.657826e+01    1.533722e+00
  1.668938e+01    1.518085e+00
  1.680051e+01    1.467829e+00
  1.691164e+01    1.460003e+00
  1.702277e+01    1.452640e+00
  1.713390e+01    1.446810e+00
  1.724503e+01    1.410325e+00
  1.735616e+01    1.384165e+00
  1.746729e+01    1.378570e+00
  1.757842e+01    1.390709e+00
  1.768955e+01    1.324481e+00
  1.780067e+01    1.346785e+00
  1.791180e+01    1.328775e+00
  1.802293e+01    1.318349e+00
  1.813406e+01    1.293812e+00
  1.824519e+01    1.286039e+00
  1.835632e+01    1.256576e+00
  1.846745e+01    1.278520e+00
  1.857858e+01    1.260139e+00
  1.868971e+01    1.259648e+00
  1.880084e+01    1.257328e+00
  1.891196e+01    1.234920e+00
  1.902309e+01    1.225965e+00
  1.913422e+01    1.180741e+00
  1.924535e+01    1.164640e+00
  1.935648e+01    1.151634e+00
  1.946761e+01    1.193103e+00
  1.957874e+01    1.162016e+00
  1.968987e+01    1.154123e+00
  1.980100e+01    1.153665e+00
  1.991213e+01    1.146309e+00
  2.002325e+01    1.139685e+00
  2.013438e+01    1.127217e+00
  2.024551e+01    1.119255e+00
  2.035664e+01    1.119521e+00
  2.046777e+01    1.092286e+00
  2.057890e+01    1.125576e+00
  2.069003e+01    1.087306e+00
  2.080116e+01    1.051713e+00
  2.091229e+01    1.095434e+00
  2.102342e+01    1.098871e+00
  2.113455e+01    1.095325e+00
  2.124567e+01    1.135329e+00
  2.135680e+01    1.168275e+00
  2.146793e+01    1.268533e+00
  2.157906e+01    1.466695e+00
  2.169019e+01    2.158820e+00
  2.180132e+01    5.025819e+00
  2.191245e+01    1.043856e+01
  2.202358e+01    5.419316e+00
  2.213471e+01    2.191002e+00
  2.224584e+01    1.446140e+00
  2.235696e+01    1.195327e+00
  2.246809e+01    1.072004e+00
  2.257922e+01    1.036547e+00
  2.269035e+01    9.829734e-01
  2.280148e+01    9.455138e-01
  2.291261e+01    9.299107e-01
  2.302374e+01    9.103377e-01
  2.313487e+01    8.872908e-01
  2.324600e+01    8.858413e-01
  2.335713e+01    8.792003e-01
  2.346825e+01    8.557074e-01
  2.357938e+01    8.566841e-01
  2.369051e+01    8.481546e-01
  2.380164e+01    8.309988e-01
  2.391277e+01    8.105238e-01
  2.402390e+01    8.009450e-01
  2.413503e+01    7.913620e-01
  2.424616e+01    7.877972e-01
  2.435729e+01    7.917212e-01
  2.446842e+01    8.026447e-01
  2.457954e+01    7.859660e-01
  2.469067e+01    8.121304e-01
  2.480180e+01    7.927461e-01
  2.491293e+01    7.913418e-01
  2.502406e+01    8.020191e-01
  2.513519e+01    8.041144e-01
  2.524632e+01    8.611683e-01
  2.535745e+01    8.938522e-01
  2.546858e+01    9.511044e-01
  2.557971e+01    1.063807e+00
  2.569083e+01    1.362505e+00
  2.580196e+01    2.302687e+00
  2.591309e+01    5.777576e+00
  2.602422e+01    8.352508e+00
  2.613535e+01    3.168891e+00
  2.624648e+01    1.576658e+00
  2.635761e+01    1.144993e+00
  2.646874e+01    1.018416e+00
  2.657987e+01    9.385555e-01
  2.669100e+01    9.310728e-01
  2.680212e+01    9.005045e-01
  2.691325e+01    9.299091e-01
  2.702438e+01    1.049589e+00
  2.713551e+01    1.491899e+00
  2.724664e+01    2.482209e+00
  2.735777e+01    1.662343e+00
  2.746890e+01    1.046987e+00
  2.758003e+01    8.892083e-01
  2.769116e+01    8.630639e-01
  2.780229e+01    8.058126e-01
  2.791342e+01    8.204505e-01
  2.802454e+01    7.978311e-01
  2.813567e+01    7.846605e-01
  2.824680e+01    7.906350e-01
  2.835793e+01    8.055018e-01
  2.846906e+01    7.723213e-01
  2.858019e+01    7.659435e-01
  2.869132e+01    7.823795e-01
  2.880245e+01    7.593027e-01
  2.891358e+01    7.793112e-01
  2.902471e+01    7.534734e-01
  2.913583e+01    7.552078e-01
  2.924696e+01    7.451219e-01
  2.935809e+01    7.261620e-01
  2.946922e+01    7.468744e-01
  2.958035e+01    7.504143e-01
  2.969148e+01    7.334654e-01
  2.980261e+01    7.278476e-01
  2.991374e+01    7.281800e-01
  3.002487e+01    7.334089e-01
  3.013600e+01    7.341797e-01
  3.024712e+01    7.389110e-01
  3.035825e+01    7.357880e-01
  3.046938e+01    7.061683e-01
  3.058051e+01    7.174819e-01
  3.069164e+01    7.036089e-01
  3.080277e+01    7.446291e-01
  3.091390e+01    7.216838e-01
  3.102503e+01    7.282951e-01
  3.113616e+01    7.185282e-01
  3.124729e+01    7.428665e-01
  3.135841e+01    7.502714e-01
  3.146954e+01    7.545547e-01
  3.158067e+01    7.968169e-01
  3.169180e+01    9.195209e-01
  3.180293e+01    1.234977e+00
  3.191406e+01    2.324810e+00
  3.202519e+01    1.948042e+00
  3.213632e+01    1.033070e+00
  3.224745e+01    8.497283e-01
  3.235858e+01    7.828973e-01
  3.246970e+01    7.264178e-01
  3.254908e+01    7.619820e-01