File: XRD/Activation ramp/2024-07-27_002_Ru-CGO-ex_Activtation_ramp_000002_data_000149.dat
# == pyFAI calibration ==
# Distance Sample to Detector: 0.4 m
# PONI: 9.750e-02, 1.135e-01 m
# Rotations: -0.000175 0.000000 -0.000000 rad
#
# == Fit2d calibration ==
# Distance Sample-beamCenter: 400.000 mm
# Center: x=1514.000, y=1300.000 pix
# Tilt: 0.010 deg  TiltPlanRot: 0.010 deg
#
# Detector Detector	 Spline= None	 PixelSize= 7.500e-05, 7.500e-05 m
#    Detector has a mask: False
#    Detector has a dark current: False
#    detector has a flat field: False
#
# Wavelength: 6.888e-11 m
# Mask applied: user provided
# Dark current applied: False
# Flat field applied: False
# Polarization factor: 0.99
# Normalization factor: 1.0
# --> /home/myspot/data/2024_07_Rosario/Ru-CGO-ex/2024-07-27_002_Ru-CGO-ex_Activtation_ramp_000002_data_000149.dat
#       q_nm^-1             I
  2.003187e-02    2.226973e-02
  1.311609e-01    3.044090e-02
  2.422899e-01    6.200085e-02
  3.534189e-01    2.318631e-02
  4.645479e-01    4.131246e-02
  5.756770e-01    2.946278e-02
  6.868060e-01    2.858111e-02
  7.979350e-01    1.192554e-01
  9.090640e-01    5.721603e-01
  1.020193e+00    1.112193e+00
  1.131322e+00    1.447236e+00
  1.242451e+00    2.243389e+00
  1.353580e+00    2.440634e+00
  1.464709e+00    2.686995e+00
  1.575838e+00    2.867058e+00
  1.686967e+00    2.638241e+00
  1.798096e+00    2.786202e+00
  1.909225e+00    2.700892e+00
  2.020354e+00    2.747627e+00
  2.131483e+00    2.748659e+00
  2.242612e+00    2.815475e+00
  2.353741e+00    2.715597e+00
  2.464870e+00    2.726734e+00
  2.575999e+00    2.799705e+00
  2.687128e+00    2.788613e+00
  2.798257e+00    2.855653e+00
  2.909386e+00    2.823808e+00
  3.020515e+00    2.814688e+00
  3.131644e+00    2.851337e+00
  3.242773e+00    2.973589e+00
  3.353902e+00    2.918290e+00
  3.465031e+00    3.026474e+00
  3.576160e+00    3.006251e+00
  3.687289e+00    3.054430e+00
  3.798418e+00    3.012263e+00
  3.909547e+00    2.929639e+00
  4.020676e+00    3.021152e+00
  4.131806e+00    2.926643e+00
  4.242935e+00    2.998194e+00
  4.354064e+00    3.040509e+00
  4.465193e+00    3.079489e+00
  4.576322e+00    3.075046e+00
  4.687451e+00    3.138379e+00
  4.798580e+00    3.115313e+00
  4.909709e+00    3.132570e+00
  5.020838e+00    3.213196e+00
  5.131967e+00    3.099557e+00
  5.243096e+00    3.156282e+00
  5.354225e+00    3.052385e+00
  5.465354e+00    3.070796e+00
  5.576483e+00    3.052789e+00
  5.687612e+00    3.034925e+00
  5.798741e+00    3.120147e+00
  5.909870e+00    3.028742e+00
  6.020999e+00    3.049649e+00
  6.132128e+00    3.104762e+00
  6.243257e+00    3.080782e+00
  6.354386e+00    3.159312e+00
  6.465515e+00    3.126871e+00
  6.576644e+00    3.010892e+00
  6.687773e+00    3.040794e+00
  6.798902e+00    3.046936e+00
  6.910031e+00    3.110282e+00
  7.021160e+00    3.029358e+00
  7.132289e+00    3.039181e+00
  7.243418e+00    3.031527e+00
  7.354547e+00    2.943755e+00
  7.465676e+00    3.005259e+00
  7.576805e+00    3.027273e+00
  7.687934e+00    2.933089e+00
  7.799063e+00    2.987205e+00
  7.910192e+00    2.994942e+00
  8.021321e+00    2.958292e+00
  8.132450e+00    2.967974e+00
  8.243579e+00    2.994765e+00
  8.354708e+00    2.879591e+00
  8.465837e+00    2.885162e+00
  8.576966e+00    2.937256e+00
  8.688095e+00    2.858545e+00
  8.799224e+00    2.878771e+00
  8.910353e+00    2.825248e+00
  9.021482e+00    2.794185e+00
  9.132611e+00    2.775972e+00
  9.243740e+00    2.783612e+00
  9.354869e+00    2.838819e+00
  9.465998e+00    2.680241e+00
  9.577127e+00    2.786766e+00
  9.688256e+00    2.779324e+00
  9.799385e+00    2.727388e+00
  9.910514e+00    2.763374e+00
  1.002164e+01    2.708732e+00
  1.013277e+01    2.656639e+00
  1.024390e+01    2.612678e+00
  1.035503e+01    2.631190e+00
  1.046616e+01    2.583759e+00
  1.057729e+01    2.565933e+00
  1.068842e+01    2.600332e+00
  1.079955e+01    2.557414e+00
  1.091068e+01    2.499390e+00
  1.102180e+01    2.450354e+00
  1.113293e+01    2.498305e+00
  1.124406e+01    2.475083e+00
  1.135519e+01    2.381109e+00
  1.146632e+01    2.464283e+00
  1.157745e+01    2.385454e+00
  1.168858e+01    2.337883e+00
  1.179971e+01    2.387569e+00
  1.191084e+01    2.350261e+00
  1.202197e+01    2.346012e+00
  1.213309e+01    2.298372e+00
  1.224422e+01    2.324540e+00
  1.235535e+01    2.349253e+00
  1.246648e+01    2.334804e+00
  1.257761e+01    2.367419e+00
  1.268874e+01    2.421300e+00
  1.279987e+01    2.653149e+00
  1.291100e+01    3.337461e+00
  1.302213e+01    6.270198e+00
  1.313326e+01    1.464158e+01
  1.324438e+01    1.113958e+01
  1.335551e+01    4.209318e+00
  1.346664e+01    2.860903e+00
  1.357777e+01    2.420513e+00
  1.368890e+01    2.291265e+00
  1.380003e+01    2.136118e+00
  1.391116e+01    2.064178e+00
  1.402229e+01    2.055102e+00
  1.413342e+01    2.048695e+00
  1.424455e+01    1.950857e+00
  1.435568e+01    1.975678e+00
  1.446680e+01    1.958167e+00
  1.457793e+01    1.939131e+00
  1.468906e+01    1.934393e+00
  1.480019e+01    1.903127e+00
  1.491132e+01    1.993536e+00
  1.502245e+01    2.282141e+00
  1.513358e+01    3.512086e+00
  1.524471e+01    5.641016e+00
  1.535584e+01    3.685824e+00
  1.546697e+01    2.204261e+00
  1.557809e+01    1.867237e+00
  1.568922e+01    1.773118e+00
  1.580035e+01    1.677043e+00
  1.591148e+01    1.624167e+00
  1.602261e+01    1.597555e+00
  1.613374e+01    1.600667e+00
  1.624487e+01    1.604506e+00
  1.635600e+01    1.534799e+00
  1.646713e+01    1.534563e+00
  1.657826e+01    1.528763e+00
  1.668938e+01    1.483182e+00
  1.680051e+01    1.490061e+00
  1.691164e+01    1.447734e+00
  1.702277e+01    1.446932e+00
  1.713390e+01    1.431172e+00
  1.724503e+01    1.406478e+00
  1.735616e+01    1.390998e+00
  1.746729e+01    1.361502e+00
  1.757842e+01    1.374250e+00
  1.768955e+01    1.329276e+00
  1.780067e+01    1.328348e+00
  1.791180e+01    1.289063e+00
  1.802293e+01    1.291876e+00
  1.813406e+01    1.316421e+00
  1.824519e+01    1.280854e+00
  1.835632e+01    1.302534e+00
  1.846745e+01    1.253526e+00
  1.857858e+01    1.236275e+00
  1.868971e+01    1.233483e+00
  1.880084e+01    1.213026e+00
  1.891196e+01    1.223845e+00
  1.902309e+01    1.189853e+00
  1.913422e+01    1.198565e+00
  1.924535e+01    1.195463e+00
  1.935648e+01    1.182859e+00
  1.946761e+01    1.166626e+00
  1.957874e+01    1.146872e+00
  1.968987e+01    1.159821e+00
  1.980100e+01    1.131981e+00
  1.991213e+01    1.115650e+00
  2.002325e+01    1.125585e+00
  2.013438e+01    1.109591e+00
  2.024551e+01    1.117921e+00
  2.035664e+01    1.102407e+00
  2.046777e+01    1.085311e+00
  2.057890e+01    1.073835e+00
  2.069003e+01    1.092215e+00
  2.080116e+01    1.101593e+00
  2.091229e+01    1.087440e+00
  2.102342e+01    1.092996e+00
  2.113455e+01    1.096782e+00
  2.124567e+01    1.113910e+00
  2.135680e+01    1.139342e+00
  2.146793e+01    1.229441e+00
  2.157906e+01    1.474983e+00
  2.169019e+01    2.413129e+00
  2.180132e+01    5.700659e+00
  2.191245e+01    9.158909e+00
  2.202358e+01    3.613442e+00
  2.213471e+01    1.765290e+00
  2.224584e+01    1.272953e+00
  2.235696e+01    1.112577e+00
  2.246809e+01    1.033621e+00
  2.257922e+01    9.872188e-01
  2.269035e+01    9.594534e-01
  2.280148e+01    9.455223e-01
  2.291261e+01    9.291182e-01
  2.302374e+01    9.008375e-01
  2.313487e+01    9.029583e-01
  2.324600e+01    8.908213e-01
  2.335713e+01    8.809977e-01
  2.346825e+01    8.509511e-01
  2.357938e+01    8.448103e-01
  2.369051e+01    8.354625e-01
  2.380164e+01    7.973381e-01
  2.391277e+01    7.845763e-01
  2.402390e+01    8.020384e-01
  2.413503e+01    7.956004e-01
  2.424616e+01    7.747599e-01
  2.435729e+01    8.097021e-01
  2.446842e+01    7.855251e-01
  2.457954e+01    7.798049e-01
  2.469067e+01    8.135357e-01
  2.480180e+01    7.980841e-01
  2.491293e+01    7.965264e-01
  2.502406e+01    7.885193e-01
  2.513519e+01    8.225399e-01
  2.524632e+01    8.471049e-01
  2.535745e+01    8.739441e-01
  2.546858e+01    9.728860e-01
  2.557971e+01    1.086177e+00
  2.569083e+01    1.439496e+00
  2.580196e+01    2.718174e+00
  2.591309e+01    6.441464e+00
  2.602422e+01    5.656530e+00
  2.613535e+01    2.143549e+00
  2.624648e+01    1.285506e+00
  2.635761e+01    1.035118e+00
  2.646874e+01    9.226629e-01
  2.657987e+01    9.103357e-01
  2.669100e+01    8.961746e-01
  2.680212e+01    9.067092e-01
  2.691325e+01    9.313267e-01
  2.702438e+01    1.065499e+00
  2.713551e+01    1.669866e+00
  2.724664e+01    2.138216e+00
  2.735777e+01    1.246373e+00
  2.746890e+01    9.448288e-01
  2.758003e+01    8.503516e-01
  2.769116e+01    8.153479e-01
  2.780229e+01    7.981066e-01
  2.791342e+01    8.030279e-01
  2.802454e+01    7.754921e-01
  2.813567e+01    7.709151e-01
  2.824680e+01    7.625147e-01
  2.835793e+01    7.601959e-01
  2.846906e+01    7.555175e-01
  2.858019e+01    7.306126e-01
  2.869132e+01    7.536642e-01
  2.880245e+01    7.388275e-01
  2.891358e+01    7.512494e-01
  2.902471e+01    7.371466e-01
  2.913583e+01    7.205856e-01
  2.924696e+01    7.325217e-01
  2.935809e+01    7.314435e-01
  2.946922e+01    7.285311e-01
  2.958035e+01    7.200404e-01
  2.969148e+01    7.439463e-01
  2.980261e+01    7.395318e-01
  2.991374e+01    7.018600e-01
  3.002487e+01    7.328016e-01
  3.013600e+01    7.048156e-01
  3.024712e+01    7.155408e-01
  3.035825e+01    7.115514e-01
  3.046938e+01    7.250462e-01
  3.058051e+01    7.047191e-01
  3.069164e+01    7.314101e-01
  3.080277e+01    7.119076e-01
  3.091390e+01    7.181825e-01
  3.102503e+01    7.208876e-01
  3.113616e+01    7.342265e-01
  3.124729e+01    7.062260e-01
  3.135841e+01    7.318365e-01
  3.146954e+01    7.618158e-01
  3.158067e+01    7.755781e-01
  3.169180e+01    9.513247e-01
  3.180293e+01    1.396828e+00
  3.191406e+01    2.236229e+00
  3.202519e+01    1.301267e+00
  3.213632e+01    8.857313e-01
  3.224745e+01    7.878407e-01
  3.235858e+01    7.429156e-01
  3.246970e+01    7.212403e-01
  3.254908e+01    7.210948e-01