File: XRD/Activation ramp/2024-07-27_002_Ru-CGO-ex_Activtation_ramp_000002_data_000058.dat
# == pyFAI calibration ==
# Distance Sample to Detector: 0.4 m
# PONI: 9.750e-02, 1.135e-01 m
# Rotations: -0.000175 0.000000 -0.000000 rad
#
# == Fit2d calibration ==
# Distance Sample-beamCenter: 400.000 mm
# Center: x=1514.000, y=1300.000 pix
# Tilt: 0.010 deg  TiltPlanRot: 0.010 deg
#
# Detector Detector	 Spline= None	 PixelSize= 7.500e-05, 7.500e-05 m
#    Detector has a mask: False
#    Detector has a dark current: False
#    detector has a flat field: False
#
# Wavelength: 6.888e-11 m
# Mask applied: user provided
# Dark current applied: False
# Flat field applied: False
# Polarization factor: 0.99
# Normalization factor: 1.0
# --> /home/myspot/data/2024_07_Rosario/Ru-CGO-ex/2024-07-27_002_Ru-CGO-ex_Activtation_ramp_000002_data_000058.dat
#       q_nm^-1             I
  2.003187e-02    0.000000e+00
  1.311609e-01    5.035120e-02
  2.422899e-01    5.815528e-02
  3.534189e-01    4.652702e-02
  4.645479e-01    6.713897e-02
  5.756770e-01    4.519412e-02
  6.868060e-01    2.621675e-02
  7.979350e-01    1.720726e-01
  9.090640e-01    7.681881e-01
  1.020193e+00    1.150975e+00
  1.131322e+00    1.378615e+00
  1.242451e+00    2.059898e+00
  1.353580e+00    2.653338e+00
  1.464709e+00    2.821701e+00
  1.575838e+00    3.162026e+00
  1.686967e+00    2.901544e+00
  1.798096e+00    2.814419e+00
  1.909225e+00    2.881386e+00
  2.020354e+00    2.835144e+00
  2.131483e+00    2.678871e+00
  2.242612e+00    2.661141e+00
  2.353741e+00    2.884986e+00
  2.464870e+00    2.918431e+00
  2.575999e+00    2.698639e+00
  2.687128e+00    2.810422e+00
  2.798257e+00    2.920565e+00
  2.909386e+00    2.951986e+00
  3.020515e+00    2.967885e+00
  3.131644e+00    2.931512e+00
  3.242773e+00    2.968042e+00
  3.353902e+00    3.015022e+00
  3.465031e+00    2.938849e+00
  3.576160e+00    2.964425e+00
  3.687289e+00    2.881412e+00
  3.798418e+00    3.011734e+00
  3.909547e+00    3.158571e+00
  4.020676e+00    3.016725e+00
  4.131806e+00    3.069282e+00
  4.242935e+00    3.015536e+00
  4.354064e+00    3.136141e+00
  4.465193e+00    3.090795e+00
  4.576322e+00    3.075488e+00
  4.687451e+00    3.147867e+00
  4.798580e+00    3.080782e+00
  4.909709e+00    3.124988e+00
  5.020838e+00    3.094087e+00
  5.131967e+00    3.119022e+00
  5.243096e+00    3.118339e+00
  5.354225e+00    3.222980e+00
  5.465354e+00    3.054802e+00
  5.576483e+00    3.084442e+00
  5.687612e+00    3.032571e+00
  5.798741e+00    3.077213e+00
  5.909870e+00    3.013058e+00
  6.020999e+00    3.039084e+00
  6.132128e+00    3.080742e+00
  6.243257e+00    3.132467e+00
  6.354386e+00    3.012508e+00
  6.465515e+00    2.982870e+00
  6.576644e+00    3.065560e+00
  6.687773e+00    3.036327e+00
  6.798902e+00    3.146522e+00
  6.910031e+00    3.075879e+00
  7.021160e+00    3.027517e+00
  7.132289e+00    3.011018e+00
  7.243418e+00    3.005565e+00
  7.354547e+00    3.030127e+00
  7.465676e+00    3.010393e+00
  7.576805e+00    2.957283e+00
  7.687934e+00    2.996785e+00
  7.799063e+00    2.924965e+00
  7.910192e+00    2.949074e+00
  8.021321e+00    2.840638e+00
  8.132450e+00    2.971221e+00
  8.243579e+00    2.923708e+00
  8.354708e+00    2.914503e+00
  8.465837e+00    2.868775e+00
  8.576966e+00    2.909829e+00
  8.688095e+00    2.849593e+00
  8.799224e+00    2.889736e+00
  8.910353e+00    2.877888e+00
  9.021482e+00    2.819364e+00
  9.132611e+00    2.743494e+00
  9.243740e+00    2.827924e+00
  9.354869e+00    2.736456e+00
  9.465998e+00    2.743780e+00
  9.577127e+00    2.813814e+00
  9.688256e+00    2.743724e+00
  9.799385e+00    2.680181e+00
  9.910514e+00    2.674869e+00
  1.002164e+01    2.699237e+00
  1.013277e+01    2.659942e+00
  1.024390e+01    2.676440e+00
  1.035503e+01    2.626050e+00
  1.046616e+01    2.587818e+00
  1.057729e+01    2.585981e+00
  1.068842e+01    2.585227e+00
  1.079955e+01    2.506895e+00
  1.091068e+01    2.482445e+00
  1.102180e+01    2.491422e+00
  1.113293e+01    2.507994e+00
  1.124406e+01    2.453660e+00
  1.135519e+01    2.498801e+00
  1.146632e+01    2.401868e+00
  1.157745e+01    2.386398e+00
  1.168858e+01    2.385199e+00
  1.179971e+01    2.404741e+00
  1.191084e+01    2.384988e+00
  1.202197e+01    2.344507e+00
  1.213309e+01    2.348937e+00
  1.224422e+01    2.351984e+00
  1.235535e+01    2.376481e+00
  1.246648e+01    2.320424e+00
  1.257761e+01    2.370302e+00
  1.268874e+01    2.478787e+00
  1.279987e+01    2.672071e+00
  1.291100e+01    3.323501e+00
  1.302213e+01    5.978907e+00
  1.313326e+01    1.496887e+01
  1.324438e+01    1.485406e+01
  1.335551e+01    5.113668e+00
  1.346664e+01    3.056364e+00
  1.357777e+01    2.491004e+00
  1.368890e+01    2.293072e+00
  1.380003e+01    2.163824e+00
  1.391116e+01    2.167875e+00
  1.402229e+01    2.109437e+00
  1.413342e+01    2.031281e+00
  1.424455e+01    1.973575e+00
  1.435568e+01    1.975578e+00
  1.446680e+01    1.936878e+00
  1.457793e+01    1.877781e+00
  1.468906e+01    1.945151e+00
  1.480019e+01    1.984907e+00
  1.491132e+01    1.993829e+00
  1.502245e+01    2.224023e+00
  1.513358e+01    3.325363e+00
  1.524471e+01    5.905478e+00
  1.535584e+01    4.540401e+00
  1.546697e+01    2.400817e+00
  1.557809e+01    1.904153e+00
  1.568922e+01    1.765509e+00
  1.580035e+01    1.700771e+00
  1.591148e+01    1.681695e+00
  1.602261e+01    1.610030e+00
  1.613374e+01    1.579751e+00
  1.624487e+01    1.560370e+00
  1.635600e+01    1.577105e+00
  1.646713e+01    1.480485e+00
  1.657826e+01    1.520515e+00
  1.668938e+01    1.466491e+00
  1.680051e+01    1.467888e+00
  1.691164e+01    1.456474e+00
  1.702277e+01    1.442995e+00
  1.713390e+01    1.421659e+00
  1.724503e+01    1.436389e+00
  1.735616e+01    1.427368e+00
  1.746729e+01    1.355702e+00
  1.757842e+01    1.353655e+00
  1.768955e+01    1.364044e+00
  1.780067e+01    1.351107e+00
  1.791180e+01    1.340023e+00
  1.802293e+01    1.302990e+00
  1.813406e+01    1.306632e+00
  1.824519e+01    1.288995e+00
  1.835632e+01    1.267557e+00
  1.846745e+01    1.279186e+00
  1.857858e+01    1.283248e+00
  1.868971e+01    1.216837e+00
  1.880084e+01    1.217054e+00
  1.891196e+01    1.216145e+00
  1.902309e+01    1.199053e+00
  1.913422e+01    1.211201e+00
  1.924535e+01    1.179941e+00
  1.935648e+01    1.172814e+00
  1.946761e+01    1.176495e+00
  1.957874e+01    1.186821e+00
  1.968987e+01    1.164433e+00
  1.980100e+01    1.157418e+00
  1.991213e+01    1.138334e+00
  2.002325e+01    1.123767e+00
  2.013438e+01    1.119018e+00
  2.024551e+01    1.109333e+00
  2.035664e+01    1.109774e+00
  2.046777e+01    1.071775e+00
  2.057890e+01    1.112865e+00
  2.069003e+01    1.109186e+00
  2.080116e+01    1.089892e+00
  2.091229e+01    1.072898e+00
  2.102342e+01    1.117339e+00
  2.113455e+01    1.079386e+00
  2.124567e+01    1.127012e+00
  2.135680e+01    1.148754e+00
  2.146793e+01    1.255399e+00
  2.157906e+01    1.467385e+00
  2.169019e+01    2.185773e+00
  2.180132e+01    5.105046e+00
  2.191245e+01    1.032946e+01
  2.202358e+01    5.310606e+00
  2.213471e+01    2.188859e+00
  2.224584e+01    1.437229e+00
  2.235696e+01    1.187360e+00
  2.246809e+01    1.095320e+00
  2.257922e+01    1.013481e+00
  2.269035e+01    9.685936e-01
  2.280148e+01    9.464890e-01
  2.291261e+01    9.064490e-01
  2.302374e+01    8.980132e-01
  2.313487e+01    9.036370e-01
  2.324600e+01    8.864953e-01
  2.335713e+01    8.621488e-01
  2.346825e+01    8.670352e-01
  2.357938e+01    8.674871e-01
  2.369051e+01    8.541209e-01
  2.380164e+01    8.287352e-01
  2.391277e+01    8.023645e-01
  2.402390e+01    8.200564e-01
  2.413503e+01    8.125373e-01
  2.424616e+01    7.896233e-01
  2.435729e+01    8.088881e-01
  2.446842e+01    7.915999e-01
  2.457954e+01    7.985905e-01
  2.469067e+01    7.892668e-01
  2.480180e+01    8.013899e-01
  2.491293e+01    8.029326e-01
  2.502406e+01    8.215674e-01
  2.513519e+01    8.317916e-01
  2.524632e+01    8.609169e-01
  2.535745e+01    8.919394e-01
  2.546858e+01    9.557543e-01
  2.557971e+01    1.055520e+00
  2.569083e+01    1.354188e+00
  2.580196e+01    2.311227e+00
  2.591309e+01    5.848374e+00
  2.602422e+01    8.210214e+00
  2.613535e+01    3.075419e+00
  2.624648e+01    1.594732e+00
  2.635761e+01    1.142761e+00
  2.646874e+01    1.026726e+00
  2.657987e+01    9.643756e-01
  2.669100e+01    9.212613e-01
  2.680212e+01    8.970286e-01
  2.691325e+01    9.370226e-01
  2.702438e+01    1.040395e+00
  2.713551e+01    1.508521e+00
  2.724664e+01    2.504578e+00
  2.735777e+01    1.634137e+00
  2.746890e+01    1.044282e+00
  2.758003e+01    9.039680e-01
  2.769116e+01    8.564779e-01
  2.780229e+01    8.293158e-01
  2.791342e+01    7.914641e-01
  2.802454e+01    8.029057e-01
  2.813567e+01    8.001554e-01
  2.824680e+01    7.964554e-01
  2.835793e+01    7.842612e-01
  2.846906e+01    7.543904e-01
  2.858019e+01    7.651995e-01
  2.869132e+01    7.538643e-01
  2.880245e+01    7.474404e-01
  2.891358e+01    7.507174e-01
  2.902471e+01    7.481595e-01
  2.913583e+01    7.340587e-01
  2.924696e+01    7.317030e-01
  2.935809e+01    7.400353e-01
  2.946922e+01    7.456626e-01
  2.958035e+01    7.301109e-01
  2.969148e+01    7.751153e-01
  2.980261e+01    7.369161e-01
  2.991374e+01    7.463384e-01
  3.002487e+01    7.196464e-01
  3.013600e+01    7.331917e-01
  3.024712e+01    6.969929e-01
  3.035825e+01    7.198735e-01
  3.046938e+01    7.307448e-01
  3.058051e+01    6.979206e-01
  3.069164e+01    7.130224e-01
  3.080277e+01    7.161633e-01
  3.091390e+01    7.181683e-01
  3.102503e+01    7.223264e-01
  3.113616e+01    7.148580e-01
  3.124729e+01    7.189502e-01
  3.135841e+01    7.481815e-01
  3.146954e+01    7.759194e-01
  3.158067e+01    8.073061e-01
  3.169180e+01    9.117432e-01
  3.180293e+01    1.263430e+00
  3.191406e+01    2.301662e+00
  3.202519e+01    1.878786e+00
  3.213632e+01    1.057765e+00
  3.224745e+01    8.142781e-01
  3.235858e+01    7.768214e-01
  3.246970e+01    7.422298e-01
  3.254908e+01    7.136188e-01