File: XRD/Activation ramp/2024-07-27_002_Ru-CGO-ex_Activtation_ramp_000002_data_000057.dat
# == pyFAI calibration ==
# Distance Sample to Detector: 0.4 m
# PONI: 9.750e-02, 1.135e-01 m
# Rotations: -0.000175 0.000000 -0.000000 rad
#
# == Fit2d calibration ==
# Distance Sample-beamCenter: 400.000 mm
# Center: x=1514.000, y=1300.000 pix
# Tilt: 0.010 deg  TiltPlanRot: 0.010 deg
#
# Detector Detector	 Spline= None	 PixelSize= 7.500e-05, 7.500e-05 m
#    Detector has a mask: False
#    Detector has a dark current: False
#    detector has a flat field: False
#
# Wavelength: 6.888e-11 m
# Mask applied: user provided
# Dark current applied: False
# Flat field applied: False
# Polarization factor: 0.99
# Normalization factor: 1.0
# --> /home/myspot/data/2024_07_Rosario/Ru-CGO-ex/2024-07-27_002_Ru-CGO-ex_Activtation_ramp_000002_data_000057.dat
#       q_nm^-1             I
  2.003187e-02    0.000000e+00
  1.311609e-01    1.689545e-02
  2.422899e-01    9.606132e-03
  3.534189e-01    2.381773e-02
  4.645479e-01    2.230258e-02
  5.756770e-01    3.885904e-02
  6.868060e-01    3.841695e-02
  7.979350e-01    2.101613e-01
  9.090640e-01    4.962628e-01
  1.020193e+00    1.150869e+00
  1.131322e+00    1.295591e+00
  1.242451e+00    2.278614e+00
  1.353580e+00    2.503369e+00
  1.464709e+00    2.775000e+00
  1.575838e+00    3.095335e+00
  1.686967e+00    2.927359e+00
  1.798096e+00    2.813306e+00
  1.909225e+00    2.817423e+00
  2.020354e+00    2.757203e+00
  2.131483e+00    2.771827e+00
  2.242612e+00    2.792626e+00
  2.353741e+00    2.631444e+00
  2.464870e+00    2.811671e+00
  2.575999e+00    2.876411e+00
  2.687128e+00    2.884305e+00
  2.798257e+00    2.899495e+00
  2.909386e+00    2.823978e+00
  3.020515e+00    2.881153e+00
  3.131644e+00    2.975343e+00
  3.242773e+00    2.979558e+00
  3.353902e+00    2.982486e+00
  3.465031e+00    2.945981e+00
  3.576160e+00    2.925512e+00
  3.687289e+00    3.020399e+00
  3.798418e+00    2.995915e+00
  3.909547e+00    3.061329e+00
  4.020676e+00    3.121043e+00
  4.131806e+00    2.981107e+00
  4.242935e+00    2.928001e+00
  4.354064e+00    3.103105e+00
  4.465193e+00    3.078758e+00
  4.576322e+00    3.092620e+00
  4.687451e+00    3.018939e+00
  4.798580e+00    3.055816e+00
  4.909709e+00    3.146442e+00
  5.020838e+00    3.087224e+00
  5.131967e+00    3.132656e+00
  5.243096e+00    3.202994e+00
  5.354225e+00    3.139115e+00
  5.465354e+00    3.091990e+00
  5.576483e+00    3.114099e+00
  5.687612e+00    3.042336e+00
  5.798741e+00    3.030176e+00
  5.909870e+00    3.007669e+00
  6.020999e+00    3.065695e+00
  6.132128e+00    3.030159e+00
  6.243257e+00    3.064063e+00
  6.354386e+00    3.022989e+00
  6.465515e+00    3.028027e+00
  6.576644e+00    3.064234e+00
  6.687773e+00    3.003200e+00
  6.798902e+00    2.999576e+00
  6.910031e+00    3.052851e+00
  7.021160e+00    3.022207e+00
  7.132289e+00    2.978502e+00
  7.243418e+00    3.019527e+00
  7.354547e+00    2.966226e+00
  7.465676e+00    3.115050e+00
  7.576805e+00    2.955461e+00
  7.687934e+00    2.968744e+00
  7.799063e+00    2.909414e+00
  7.910192e+00    2.995529e+00
  8.021321e+00    2.976550e+00
  8.132450e+00    2.957748e+00
  8.243579e+00    2.963001e+00
  8.354708e+00    2.900503e+00
  8.465837e+00    2.854757e+00
  8.576966e+00    2.859654e+00
  8.688095e+00    2.829561e+00
  8.799224e+00    2.863768e+00
  8.910353e+00    2.809182e+00
  9.021482e+00    2.816333e+00
  9.132611e+00    2.841509e+00
  9.243740e+00    2.727624e+00
  9.354869e+00    2.782754e+00
  9.465998e+00    2.755079e+00
  9.577127e+00    2.751340e+00
  9.688256e+00    2.787251e+00
  9.799385e+00    2.754832e+00
  9.910514e+00    2.672069e+00
  1.002164e+01    2.682716e+00
  1.013277e+01    2.726473e+00
  1.024390e+01    2.627196e+00
  1.035503e+01    2.658391e+00
  1.046616e+01    2.635109e+00
  1.057729e+01    2.566717e+00
  1.068842e+01    2.571901e+00
  1.079955e+01    2.569686e+00
  1.091068e+01    2.528183e+00
  1.102180e+01    2.527089e+00
  1.113293e+01    2.543014e+00
  1.124406e+01    2.429676e+00
  1.135519e+01    2.424551e+00
  1.146632e+01    2.464519e+00
  1.157745e+01    2.369372e+00
  1.168858e+01    2.422787e+00
  1.179971e+01    2.383864e+00
  1.191084e+01    2.350675e+00
  1.202197e+01    2.344360e+00
  1.213309e+01    2.333535e+00
  1.224422e+01    2.325662e+00
  1.235535e+01    2.346793e+00
  1.246648e+01    2.386582e+00
  1.257761e+01    2.377403e+00
  1.268874e+01    2.488567e+00
  1.279987e+01    2.687033e+00
  1.291100e+01    3.343080e+00
  1.302213e+01    5.971306e+00
  1.313326e+01    1.497385e+01
  1.324438e+01    1.488088e+01
  1.335551e+01    5.155759e+00
  1.346664e+01    3.122917e+00
  1.357777e+01    2.569539e+00
  1.368890e+01    2.299185e+00
  1.380003e+01    2.159242e+00
  1.391116e+01    2.088601e+00
  1.402229e+01    2.035873e+00
  1.413342e+01    2.010500e+00
  1.424455e+01    1.983699e+00
  1.435568e+01    1.925022e+00
  1.446680e+01    1.904245e+00
  1.457793e+01    1.901385e+00
  1.468906e+01    1.908805e+00
  1.480019e+01    1.914566e+00
  1.491132e+01    1.986019e+00
  1.502245e+01    2.211057e+00
  1.513358e+01    3.245222e+00
  1.524471e+01    5.924495e+00
  1.535584e+01    4.604209e+00
  1.546697e+01    2.430763e+00
  1.557809e+01    1.936180e+00
  1.568922e+01    1.789874e+00
  1.580035e+01    1.715317e+00
  1.591148e+01    1.655423e+00
  1.602261e+01    1.611702e+00
  1.613374e+01    1.598192e+00
  1.624487e+01    1.569577e+00
  1.635600e+01    1.542097e+00
  1.646713e+01    1.531170e+00
  1.657826e+01    1.516980e+00
  1.668938e+01    1.486434e+00
  1.680051e+01    1.493817e+00
  1.691164e+01    1.467078e+00
  1.702277e+01    1.441151e+00
  1.713390e+01    1.409166e+00
  1.724503e+01    1.402599e+00
  1.735616e+01    1.402434e+00
  1.746729e+01    1.396124e+00
  1.757842e+01    1.377490e+00
  1.768955e+01    1.329836e+00
  1.780067e+01    1.329235e+00
  1.791180e+01    1.335762e+00
  1.802293e+01    1.289029e+00
  1.813406e+01    1.306546e+00
  1.824519e+01    1.291855e+00
  1.835632e+01    1.276480e+00
  1.846745e+01    1.275975e+00
  1.857858e+01    1.247656e+00
  1.868971e+01    1.227397e+00
  1.880084e+01    1.250598e+00
  1.891196e+01    1.246654e+00
  1.902309e+01    1.208406e+00
  1.913422e+01    1.185988e+00
  1.924535e+01    1.187574e+00
  1.935648e+01    1.170922e+00
  1.946761e+01    1.165695e+00
  1.957874e+01    1.172183e+00
  1.968987e+01    1.159912e+00
  1.980100e+01    1.153293e+00
  1.991213e+01    1.144563e+00
  2.002325e+01    1.141462e+00
  2.013438e+01    1.114991e+00
  2.024551e+01    1.113216e+00
  2.035664e+01    1.107457e+00
  2.046777e+01    1.095844e+00
  2.057890e+01    1.088457e+00
  2.069003e+01    1.090736e+00
  2.080116e+01    1.096265e+00
  2.091229e+01    1.078474e+00
  2.102342e+01    1.093538e+00
  2.113455e+01    1.078103e+00
  2.124567e+01    1.117745e+00
  2.135680e+01    1.177248e+00
  2.146793e+01    1.228750e+00
  2.157906e+01    1.439907e+00
  2.169019e+01    2.181364e+00
  2.180132e+01    5.062406e+00
  2.191245e+01    1.028396e+01
  2.202358e+01    5.334786e+00
  2.213471e+01    2.150878e+00
  2.224584e+01    1.391869e+00
  2.235696e+01    1.167017e+00
  2.246809e+01    1.078572e+00
  2.257922e+01    1.017917e+00
  2.269035e+01    9.735001e-01
  2.280148e+01    9.600784e-01
  2.291261e+01    9.380777e-01
  2.302374e+01    9.028367e-01
  2.313487e+01    9.031323e-01
  2.324600e+01    8.701526e-01
  2.335713e+01    8.715366e-01
  2.346825e+01    8.737805e-01
  2.357938e+01    8.515874e-01
  2.369051e+01    8.400334e-01
  2.380164e+01    8.050039e-01
  2.391277e+01    8.140195e-01
  2.402390e+01    8.026809e-01
  2.413503e+01    8.047456e-01
  2.424616e+01    7.745445e-01
  2.435729e+01    8.100872e-01
  2.446842e+01    8.054085e-01
  2.457954e+01    7.954959e-01
  2.469067e+01    7.879403e-01
  2.480180e+01    7.831262e-01
  2.491293e+01    7.961046e-01
  2.502406e+01    8.111458e-01
  2.513519e+01    8.194463e-01
  2.524632e+01    8.606817e-01
  2.535745e+01    8.821445e-01
  2.546858e+01    9.293392e-01
  2.557971e+01    1.055728e+00
  2.569083e+01    1.333238e+00
  2.580196e+01    2.295558e+00
  2.591309e+01    5.841165e+00
  2.602422e+01    8.198897e+00
  2.613535e+01    3.081653e+00
  2.624648e+01    1.587913e+00
  2.635761e+01    1.126368e+00
  2.646874e+01    1.000387e+00
  2.657987e+01    9.368572e-01
  2.669100e+01    9.276838e-01
  2.680212e+01    8.993858e-01
  2.691325e+01    9.446316e-01
  2.702438e+01    1.020619e+00
  2.713551e+01    1.482917e+00
  2.724664e+01    2.497866e+00
  2.735777e+01    1.613351e+00
  2.746890e+01    1.053627e+00
  2.758003e+01    9.017389e-01
  2.769116e+01    8.479791e-01
  2.780229e+01    8.336095e-01
  2.791342e+01    8.290524e-01
  2.802454e+01    8.306291e-01
  2.813567e+01    7.746875e-01
  2.824680e+01    7.662673e-01
  2.835793e+01    7.815506e-01
  2.846906e+01    7.824107e-01
  2.858019e+01    7.623384e-01
  2.869132e+01    7.560186e-01
  2.880245e+01    7.615290e-01
  2.891358e+01    7.296058e-01
  2.902471e+01    7.571684e-01
  2.913583e+01    7.409748e-01
  2.924696e+01    7.393053e-01
  2.935809e+01    7.428144e-01
  2.946922e+01    7.345361e-01
  2.958035e+01    7.033067e-01
  2.969148e+01    7.184509e-01
  2.980261e+01    7.117628e-01
  2.991374e+01    7.210115e-01
  3.002487e+01    7.710708e-01
  3.013600e+01    7.490858e-01
  3.024712e+01    7.149619e-01
  3.035825e+01    7.216504e-01
  3.046938e+01    7.390902e-01
  3.058051e+01    7.111256e-01
  3.069164e+01    7.353033e-01
  3.080277e+01    7.233732e-01
  3.091390e+01    7.110909e-01
  3.102503e+01    7.278131e-01
  3.113616e+01    7.399244e-01
  3.124729e+01    7.317773e-01
  3.135841e+01    7.462975e-01
  3.146954e+01    7.737777e-01
  3.158067e+01    7.937930e-01
  3.169180e+01    8.965745e-01
  3.180293e+01    1.236823e+00
  3.191406e+01    2.308122e+00
  3.202519e+01    1.908779e+00
  3.213632e+01    1.025314e+00
  3.224745e+01    8.283688e-01
  3.235858e+01    7.848429e-01
  3.246970e+01    7.526918e-01
  3.254908e+01    7.426793e-01