File: XRD/Activation ramp/2024-07-27_002_Ru-CGO-ex_Activtation_ramp_000002_data_000062.dat
# == pyFAI calibration ==
# Distance Sample to Detector: 0.4 m
# PONI: 9.750e-02, 1.135e-01 m
# Rotations: -0.000175 0.000000 -0.000000 rad
#
# == Fit2d calibration ==
# Distance Sample-beamCenter: 400.000 mm
# Center: x=1514.000, y=1300.000 pix
# Tilt: 0.010 deg  TiltPlanRot: 0.010 deg
#
# Detector Detector	 Spline= None	 PixelSize= 7.500e-05, 7.500e-05 m
#    Detector has a mask: False
#    Detector has a dark current: False
#    detector has a flat field: False
#
# Wavelength: 6.888e-11 m
# Mask applied: user provided
# Dark current applied: False
# Flat field applied: False
# Polarization factor: 0.99
# Normalization factor: 1.0
# --> /home/myspot/data/2024_07_Rosario/Ru-CGO-ex/2024-07-27_002_Ru-CGO-ex_Activtation_ramp_000002_data_000062.dat
#       q_nm^-1             I
  2.003187e-02    0.000000e+00
  1.311609e-01    8.842749e-02
  2.422899e-01    3.146925e-02
  3.534189e-01    5.741725e-02
  4.645479e-01    5.234101e-02
  5.756770e-01    3.469839e-02
  6.868060e-01    5.496389e-02
  7.979350e-01    1.973550e-01
  9.090640e-01    5.378363e-01
  1.020193e+00    1.118706e+00
  1.131322e+00    1.391577e+00
  1.242451e+00    2.236241e+00
  1.353580e+00    2.591063e+00
  1.464709e+00    2.897096e+00
  1.575838e+00    3.167179e+00
  1.686967e+00    2.806945e+00
  1.798096e+00    2.824052e+00
  1.909225e+00    2.744678e+00
  2.020354e+00    2.897443e+00
  2.131483e+00    2.717493e+00
  2.242612e+00    2.853134e+00
  2.353741e+00    2.708531e+00
  2.464870e+00    2.717185e+00
  2.575999e+00    2.833124e+00
  2.687128e+00    2.934624e+00
  2.798257e+00    2.770779e+00
  2.909386e+00    2.940457e+00
  3.020515e+00    2.980384e+00
  3.131644e+00    2.935983e+00
  3.242773e+00    2.827287e+00
  3.353902e+00    2.884007e+00
  3.465031e+00    3.020389e+00
  3.576160e+00    2.961303e+00
  3.687289e+00    2.948060e+00
  3.798418e+00    2.956740e+00
  3.909547e+00    2.858337e+00
  4.020676e+00    3.069545e+00
  4.131806e+00    2.982262e+00
  4.242935e+00    3.050551e+00
  4.354064e+00    3.147146e+00
  4.465193e+00    3.022770e+00
  4.576322e+00    3.093189e+00
  4.687451e+00    3.193819e+00
  4.798580e+00    3.132767e+00
  4.909709e+00    3.049299e+00
  5.020838e+00    3.102732e+00
  5.131967e+00    3.095721e+00
  5.243096e+00    3.158284e+00
  5.354225e+00    3.097839e+00
  5.465354e+00    3.033017e+00
  5.576483e+00    3.020579e+00
  5.687612e+00    3.026765e+00
  5.798741e+00    3.031388e+00
  5.909870e+00    3.012712e+00
  6.020999e+00    3.008388e+00
  6.132128e+00    3.002783e+00
  6.243257e+00    3.085609e+00
  6.354386e+00    3.082613e+00
  6.465515e+00    2.994268e+00
  6.576644e+00    3.099247e+00
  6.687773e+00    2.973589e+00
  6.798902e+00    3.046245e+00
  6.910031e+00    2.981445e+00
  7.021160e+00    2.994072e+00
  7.132289e+00    2.992284e+00
  7.243418e+00    2.963058e+00
  7.354547e+00    2.991355e+00
  7.465676e+00    2.954021e+00
  7.576805e+00    3.009881e+00
  7.687934e+00    2.978158e+00
  7.799063e+00    2.979410e+00
  7.910192e+00    2.928633e+00
  8.021321e+00    2.898013e+00
  8.132450e+00    2.995185e+00
  8.243579e+00    2.993859e+00
  8.354708e+00    2.905758e+00
  8.465837e+00    2.871011e+00
  8.576966e+00    2.839837e+00
  8.688095e+00    2.871255e+00
  8.799224e+00    2.856232e+00
  8.910353e+00    2.823347e+00
  9.021482e+00    2.830456e+00
  9.132611e+00    2.786805e+00
  9.243740e+00    2.769324e+00
  9.354869e+00    2.795997e+00
  9.465998e+00    2.748361e+00
  9.577127e+00    2.724660e+00
  9.688256e+00    2.755926e+00
  9.799385e+00    2.734061e+00
  9.910514e+00    2.692444e+00
  1.002164e+01    2.707823e+00
  1.013277e+01    2.626269e+00
  1.024390e+01    2.689817e+00
  1.035503e+01    2.588451e+00
  1.046616e+01    2.616605e+00
  1.057729e+01    2.508420e+00
  1.068842e+01    2.540495e+00
  1.079955e+01    2.585802e+00
  1.091068e+01    2.471727e+00
  1.102180e+01    2.540679e+00
  1.113293e+01    2.473718e+00
  1.124406e+01    2.459618e+00
  1.135519e+01    2.430955e+00
  1.146632e+01    2.391311e+00
  1.157745e+01    2.397578e+00
  1.168858e+01    2.347475e+00
  1.179971e+01    2.372396e+00
  1.191084e+01    2.369251e+00
  1.202197e+01    2.335323e+00
  1.213309e+01    2.358973e+00
  1.224422e+01    2.312025e+00
  1.235535e+01    2.333882e+00
  1.246648e+01    2.346817e+00
  1.257761e+01    2.361340e+00
  1.268874e+01    2.476397e+00
  1.279987e+01    2.727856e+00
  1.291100e+01    3.267374e+00
  1.302213e+01    6.011057e+00
  1.313326e+01    1.496593e+01
  1.324438e+01    1.469751e+01
  1.335551e+01    4.997454e+00
  1.346664e+01    3.054378e+00
  1.357777e+01    2.529345e+00
  1.368890e+01    2.323405e+00
  1.380003e+01    2.143789e+00
  1.391116e+01    2.085036e+00
  1.402229e+01    2.079846e+00
  1.413342e+01    2.046640e+00
  1.424455e+01    1.974005e+00
  1.435568e+01    1.995581e+00
  1.446680e+01    1.951856e+00
  1.457793e+01    1.907002e+00
  1.468906e+01    1.890405e+00
  1.480019e+01    1.924302e+00
  1.491132e+01    1.951123e+00
  1.502245e+01    2.216085e+00
  1.513358e+01    3.306355e+00
  1.524471e+01    5.942093e+00
  1.535584e+01    4.502257e+00
  1.546697e+01    2.376884e+00
  1.557809e+01    1.938623e+00
  1.568922e+01    1.751427e+00
  1.580035e+01    1.710102e+00
  1.591148e+01    1.617776e+00
  1.602261e+01    1.621367e+00
  1.613374e+01    1.602586e+00
  1.624487e+01    1.573774e+00
  1.635600e+01    1.570933e+00
  1.646713e+01    1.507468e+00
  1.657826e+01    1.507956e+00
  1.668938e+01    1.500244e+00
  1.680051e+01    1.471277e+00
  1.691164e+01    1.473558e+00
  1.702277e+01    1.436956e+00
  1.713390e+01    1.422492e+00
  1.724503e+01    1.374885e+00
  1.735616e+01    1.387147e+00
  1.746729e+01    1.348493e+00
  1.757842e+01    1.380416e+00
  1.768955e+01    1.371994e+00
  1.780067e+01    1.321555e+00
  1.791180e+01    1.320323e+00
  1.802293e+01    1.311256e+00
  1.813406e+01    1.303585e+00
  1.824519e+01    1.276732e+00
  1.835632e+01    1.273735e+00
  1.846745e+01    1.271453e+00
  1.857858e+01    1.244718e+00
  1.868971e+01    1.239437e+00
  1.880084e+01    1.225327e+00
  1.891196e+01    1.220667e+00
  1.902309e+01    1.216693e+00
  1.913422e+01    1.178902e+00
  1.924535e+01    1.195024e+00
  1.935648e+01    1.193901e+00
  1.946761e+01    1.170272e+00
  1.957874e+01    1.147662e+00
  1.968987e+01    1.147835e+00
  1.980100e+01    1.135710e+00
  1.991213e+01    1.134537e+00
  2.002325e+01    1.111793e+00
  2.013438e+01    1.116031e+00
  2.024551e+01    1.094622e+00
  2.035664e+01    1.111942e+00
  2.046777e+01    1.115302e+00
  2.057890e+01    1.068294e+00
  2.069003e+01    1.095953e+00
  2.080116e+01    1.082996e+00
  2.091229e+01    1.084520e+00
  2.102342e+01    1.085697e+00
  2.113455e+01    1.097136e+00
  2.124567e+01    1.114375e+00
  2.135680e+01    1.143117e+00
  2.146793e+01    1.215844e+00
  2.157906e+01    1.435776e+00
  2.169019e+01    2.134039e+00
  2.180132e+01    5.073246e+00
  2.191245e+01    1.029386e+01
  2.202358e+01    5.138585e+00
  2.213471e+01    2.141212e+00
  2.224584e+01    1.384216e+00
  2.235696e+01    1.165181e+00
  2.246809e+01    1.074831e+00
  2.257922e+01    1.001580e+00
  2.269035e+01    9.590427e-01
  2.280148e+01    9.346693e-01
  2.291261e+01    9.332215e-01
  2.302374e+01    9.044141e-01
  2.313487e+01    8.921520e-01
  2.324600e+01    8.818892e-01
  2.335713e+01    8.529353e-01
  2.346825e+01    8.674375e-01
  2.357938e+01    8.507048e-01
  2.369051e+01    8.360735e-01
  2.380164e+01    8.151522e-01
  2.391277e+01    8.042219e-01
  2.402390e+01    7.873730e-01
  2.413503e+01    7.946262e-01
  2.424616e+01    7.801378e-01
  2.435729e+01    7.881003e-01
  2.446842e+01    7.936687e-01
  2.457954e+01    8.094750e-01
  2.469067e+01    8.064699e-01
  2.480180e+01    8.099858e-01
  2.491293e+01    8.026674e-01
  2.502406e+01    8.135741e-01
  2.513519e+01    8.351293e-01
  2.524632e+01    8.454728e-01
  2.535745e+01    8.999245e-01
  2.546858e+01    9.380975e-01
  2.557971e+01    1.082209e+00
  2.569083e+01    1.350457e+00
  2.580196e+01    2.324552e+00
  2.591309e+01    5.897611e+00
  2.602422e+01    7.988236e+00
  2.613535e+01    2.964997e+00
  2.624648e+01    1.546848e+00
  2.635761e+01    1.128644e+00
  2.646874e+01    9.937500e-01
  2.657987e+01    9.400244e-01
  2.669100e+01    9.136310e-01
  2.680212e+01    9.049472e-01
  2.691325e+01    9.462052e-01
  2.702438e+01    1.033069e+00
  2.713551e+01    1.515090e+00
  2.724664e+01    2.505470e+00
  2.735777e+01    1.571436e+00
  2.746890e+01    1.045131e+00
  2.758003e+01    8.963746e-01
  2.769116e+01    8.441291e-01
  2.780229e+01    8.288928e-01
  2.791342e+01    8.231066e-01
  2.802454e+01    7.775499e-01
  2.813567e+01    8.071590e-01
  2.824680e+01    7.899008e-01
  2.835793e+01    7.657948e-01
  2.846906e+01    7.731255e-01
  2.858019e+01    7.549784e-01
  2.869132e+01    7.596448e-01
  2.880245e+01    7.489274e-01
  2.891358e+01    7.529900e-01
  2.902471e+01    7.284667e-01
  2.913583e+01    7.237990e-01
  2.924696e+01    7.456906e-01
  2.935809e+01    7.348229e-01
  2.946922e+01    7.217156e-01
  2.958035e+01    7.227443e-01
  2.969148e+01    7.279830e-01
  2.980261e+01    7.295474e-01
  2.991374e+01    7.535210e-01
  3.002487e+01    7.396206e-01
  3.013600e+01    7.172284e-01
  3.024712e+01    7.227492e-01
  3.035825e+01    7.210451e-01
  3.046938e+01    7.427132e-01
  3.058051e+01    7.269766e-01
  3.069164e+01    7.244540e-01
  3.080277e+01    7.088603e-01
  3.091390e+01    7.208548e-01
  3.102503e+01    7.314087e-01
  3.113616e+01    7.239119e-01
  3.124729e+01    7.273918e-01
  3.135841e+01    7.292677e-01
  3.146954e+01    7.829847e-01
  3.158067e+01    7.773622e-01
  3.169180e+01    8.999138e-01
  3.180293e+01    1.248701e+00
  3.191406e+01    2.279627e+00
  3.202519e+01    1.848815e+00
  3.213632e+01    1.040417e+00
  3.224745e+01    8.229421e-01
  3.235858e+01    7.829221e-01
  3.246970e+01    7.458286e-01
  3.254908e+01    7.382763e-01