File: XRD/Activation ramp/cleaned_data.txt
q_nm^-1             I
2.003187e-02    0.000000e+00
1.311609e-01    3.958973e-02
2.422899e-01    7.643035e-02
3.534189e-01    2.063214e-02
4.645479e-01    4.742662e-02
5.756770e-01    5.806728e-02
6.868060e-01    2.188308e-02
7.979350e-01    1.460565e-01
9.090640e-01    5.455952e-01
1.020193e+00    1.086100e+00
1.131322e+00    1.394027e+00
1.242451e+00    2.072169e+00
1.353580e+00    2.523986e+00
1.464709e+00    2.684656e+00
1.575838e+00    2.759542e+00
1.686967e+00    2.838326e+00
1.798096e+00    2.752375e+00
1.909225e+00    2.715297e+00
2.020354e+00    2.793596e+00
2.131483e+00    2.637948e+00
2.242612e+00    2.698726e+00
2.353741e+00    2.705975e+00
2.464870e+00    2.871616e+00
2.575999e+00    2.903978e+00
2.687128e+00    2.865590e+00
2.798257e+00    2.909472e+00
2.909386e+00    2.824304e+00
3.020515e+00    2.962587e+00
3.131644e+00    2.970553e+00
3.242773e+00    2.949680e+00
3.353902e+00    2.966541e+00
3.465031e+00    2.929842e+00
3.576160e+00    3.007144e+00
3.687289e+00    3.095640e+00
3.798418e+00    2.951684e+00
3.909547e+00    3.025983e+00
4.020676e+00    3.025285e+00
4.131806e+00    3.039526e+00
4.242935e+00    3.035920e+00
4.354064e+00    3.074269e+00
4.465193e+00    3.046229e+00
4.576322e+00    3.153268e+00
4.687451e+00    3.069607e+00
4.798580e+00    3.115799e+00
4.909709e+00    3.193027e+00
5.020838e+00    3.085606e+00
5.131967e+00    3.100552e+00
5.243096e+00    3.107142e+00
5.354225e+00    3.129153e+00
5.465354e+00    3.094118e+00
5.576483e+00    3.065278e+00
5.687612e+00    3.071622e+00
5.798741e+00    3.085348e+00
5.909870e+00    3.054729e+00
6.020999e+00    3.063257e+00
6.132128e+00    3.091321e+00
6.243257e+00    3.066407e+00
6.354386e+00    3.042791e+00
6.465515e+00    3.052611e+00
6.576644e+00    3.051074e+00
6.687773e+00    3.160798e+00
6.798902e+00    3.038550e+00
6.910031e+00    3.018191e+00
7.021160e+00    3.035670e+00
7.132289e+00    3.004482e+00
7.243418e+00    2.969689e+00
7.354547e+00    3.070100e+00
7.465676e+00    2.972286e+00
7.576805e+00    3.025521e+00
7.687934e+00    2.965814e+00
7.799063e+00    2.930451e+00
7.910192e+00    2.944052e+00
8.021321e+00    2.933203e+00
8.132450e+00    2.895764e+00
8.243579e+00    2.972086e+00
8.354708e+00    2.906709e+00
8.465837e+00    2.892386e+00
8.576966e+00    2.791010e+00
8.688095e+00    2.827817e+00
8.799224e+00    2.872938e+00
8.910353e+00    2.800138e+00
9.021482e+00    2.812455e+00
9.132611e+00    2.813800e+00
9.243740e+00    2.782265e+00
9.354869e+00    2.773710e+00
9.465998e+00    2.791306e+00
9.577127e+00    2.743321e+00
9.688256e+00    2.726246e+00
9.799385e+00    2.723619e+00
9.910514e+00    2.697732e+00
1.002164e+01    2.692404e+00
1.013277e+01    2.615227e+00
1.024390e+01    2.594052e+00
1.035503e+01    2.628025e+00
1.046616e+01    2.574031e+00
1.057729e+01    2.619347e+00
1.068842e+01    2.597816e+00
1.079955e+01    2.502902e+00
1.091068e+01    2.545021e+00
1.102180e+01    2.530997e+00
1.113293e+01    2.468295e+00
1.124406e+01    2.463098e+00
1.135519e+01    2.418025e+00
1.146632e+01    2.409666e+00
1.157745e+01    2.407599e+00
1.168858e+01    2.350352e+00
1.179971e+01    2.385518e+00
1.191084e+01    2.314140e+00
1.202197e+01    2.379460e+00
1.213309e+01    2.307276e+00
1.224422e+01    2.357684e+00
1.235535e+01    2.330475e+00
1.246648e+01    2.337270e+00
1.257761e+01    2.380359e+00
1.268874e+01    2.462487e+00
1.279987e+01    2.626616e+00
1.291100e+01    3.210648e+00
1.302213e+01    6.222753e+00
1.313326e+01    1.394532e+01
1.324438e+01    1.016234e+01
1.335551e+01    4.032429e+00
1.346664e+01    2.796391e+00
1.357777e+01    2.362099e+00
1.368890e+01    2.226429e+00
1.380003e+01    2.154878e+00
1.391116e+01    2.065859e+00
1.402229e+01    2.024579e+00
1.413342e+01    2.047179e+00
1.424455e+01    2.012183e+00
1.435568e+01    1.969875e+00
1.446680e+01    1.929729e+00
1.457793e+01    1.871477e+00
1.468906e+01    1.940499e+00
1.480019e+01    1.926679e+00
1.491132e+01    1.974658e+00
1.502245e+01    2.192208e+00
1.513358e+01    3.446543e+00
1.524471e+01    5.427047e+00
1.535584e+01    3.430313e+00
1.546697e+01    2.125942e+00
1.557809e+01    1.852301e+00
1.568922e+01    1.724146e+00
1.580035e+01    1.664875e+00
1.591148e+01    1.640584e+00
1.602261e+01    1.632025e+00
1.613374e+01    1.572213e+00
1.624487e+01    1.555822e+00
1.635600e+01    1.570050e+00
1.646713e+01    1.532740e+00
1.657826e+01    1.496112e+00
1.668938e+01    1.507947e+00
1.680051e+01    1.489016e+00
1.691164e+01    1.466411e+00
1.702277e+01    1.442656e+00
1.713390e+01    1.430054e+00
1.724503e+01    1.412027e+00
1.735616e+01    1.388924e+00
1.746729e+01    1.380393e+00
1.757842e+01    1.362702e+00
1.768955e+01    1.352830e+00
1.780067e+01    1.302728e+00
1.791180e+01    1.324902e+00
1.802293e+01    1.294413e+00
1.813406e+01    1.296839e+00
1.824519e+01    1.278728e+00
1.835632e+01    1.249235e+00
1.846745e+01    1.250368e+00
1.857858e+01    1.243627e+00
1.868971e+01    1.227613e+00
1.880084e+01    1.213181e+00
1.891196e+01    1.220006e+00
1.902309e+01    1.190157e+00
1.913422e+01    1.205601e+00
1.924535e+01    1.155543e+00
1.935648e+01    1.159742e+00
1.946761e+01    1.171022e+00
1.957874e+01    1.147045e+00
1.968987e+01    1.139247e+00
1.980100e+01    1.139187e+00
1.991213e+01    1.127408e+00
2.002325e+01    1.115183e+00
2.013438e+01    1.107170e+00
2.024551e+01    1.094559e+00
2.035664e+01    1.068688e+00
2.046777e+01    1.061412e+00
2.057890e+01    1.087139e+00
2.069003e+01    1.084160e+00
2.080116e+01    1.083064e+00
2.091229e+01    1.115122e+00
2.102342e+01    1.082214e+00
2.113455e+01    1.072240e+00
2.124567e+01    1.098377e+00
2.135680e+01    1.101835e+00
2.146793e+01    1.238107e+00
2.157906e+01    1.452712e+00
2.169019e+01    2.373066e+00
2.180132e+01    5.530906e+00
2.191245e+01    8.586416e+00
2.202358e+01    3.337972e+00
2.213471e+01    1.693815e+00
2.224584e+01    1.267619e+00
2.235696e+01    1.121084e+00
2.246809e+01    1.017363e+00
2.257922e+01    9.903285e-01
2.269035e+01    9.577191e-01
2.280148e+01    9.432241e-01
2.291261e+01    9.033841e-01
2.302374e+01    8.830988e-01
2.313487e+01    8.913077e-01
2.324600e+01    8.785575e-01
2.335713e+01    8.523771e-01
2.346825e+01    8.334410e-01
2.357938e+01    8.327510e-01
2.369051e+01    8.230693e-01
2.380164e+01    7.971353e-01
2.391277e+01    7.902381e-01
2.402390e+01    7.658475e-01
2.413503e+01    7.739673e-01
2.424616e+01    8.010979e-01
2.435729e+01    7.837499e-01
2.446842e+01    7.816925e-01
2.457954e+01    7.778572e-01
2.469067e+01    7.706717e-01
2.480180e+01    7.902201e-01
2.491293e+01    8.019577e-01
2.502406e+01    7.855559e-01
2.513519e+01    7.946398e-01
2.524632e+01    8.394822e-01
2.535745e+01    8.805411e-01
2.546858e+01    9.215556e-01
2.557971e+01    1.070007e+00
2.569083e+01    1.416069e+00
2.580196e+01    2.738164e+00
2.591309e+01    6.202962e+00
2.602422e+01    5.099787e+00
2.613535e+01    1.976102e+00
2.624648e+01    1.246330e+00
2.635761e+01    1.015481e+00
2.646874e+01    9.216429e-01
2.657987e+01    8.907959e-01
2.669100e+01    8.780413e-01
2.680212e+01    8.708562e-01
2.691325e+01    9.196869e-01
2.702438e+01    1.042104e+00
2.713551e+01    1.660788e+00
2.724664e+01    2.031654e+00
2.735777e+01    1.154133e+00
2.746890e+01    9.201146e-01
2.758003e+01    8.637043e-01
2.769116e+01    8.006063e-01
2.780229e+01    7.738671e-01
2.791342e+01    7.833413e-01
2.802454e+01    7.803179e-01
2.813567e+01    7.690261e-01
2.824680e+01    7.516162e-01
2.835793e+01    7.526113e-01
2.846906e+01    7.513216e-01
2.858019e+01    7.635413e-01
2.869132e+01    7.368706e-01
2.880245e+01    7.480617e-01
2.891358e+01    7.362173e-01
2.902471e+01    7.312696e-01
2.913583e+01    7.445105e-01
2.924696e+01    7.275164e-01
2.935809e+01    7.236781e-01
2.946922e+01    7.386199e-01
2.958035e+01    7.285395e-01
2.969148e+01    7.113811e-01
2.980261e+01    7.254375e-01
2.991374e+01    7.158607e-01
3.002487e+01    7.441303e-01
3.013600e+01    7.348955e-01
3.024712e+01    7.107037e-01
3.035825e+01    6.850581e-01
3.046938e+01    6.931093e-01
3.058051e+01    7.109351e-01
3.069164e+01    6.854771e-01
3.080277e+01    7.251920e-01
3.091390e+01    7.040610e-01
3.102503e+01    6.980757e-01
3.113616e+01    7.319477e-01
3.124729e+01    7.176927e-01
3.135841e+01    7.199311e-01
3.146954e+01    7.460701e-01
3.158067e+01    8.104432e-01
3.169180e+01    9.575751e-01
3.180293e+01    1.393438e+00
3.191406e+01    2.098564e+00
3.202519e+01    1.238611e+00
3.213632e+01    8.549211e-01
3.224745e+01    7.679464e-01
3.235858e+01    7.156300e-01
3.246970e+01    7.152893e-01
3.254908e+01    7.120280e-01