File: XRD/Reaction conditions/2024-07-27_003_Ru-CGO-ex_Reaction_dwell_000023_data_000158.dat
# == pyFAI calibration ==
# Distance Sample to Detector: 0.4 m
# PONI: 9.750e-02, 1.135e-01 m
# Rotations: -0.000175 0.000000 -0.000000 rad
#
# == Fit2d calibration ==
# Distance Sample-beamCenter: 400.000 mm
# Center: x=1514.000, y=1300.000 pix
# Tilt: 0.010 deg  TiltPlanRot: 0.010 deg
#
# Detector Detector	 Spline= None	 PixelSize= 7.500e-05, 7.500e-05 m
#    Detector has a mask: False
#    Detector has a dark current: False
#    detector has a flat field: False
#
# Wavelength: 6.888e-11 m
# Mask applied: user provided
# Dark current applied: False
# Flat field applied: False
# Polarization factor: 0.99
# Normalization factor: 1.0
# --> /home/myspot/data/2024_07_Rosario/Ru-CGO-ex/2024-07-27_003_Ru-CGO-ex_Reaction_dwell_000023_data_000158.dat
#       q_nm^-1             I
  2.003187e-02    0.000000e+00
  1.311609e-01    8.627106e-03
  2.422899e-01    1.070595e-01
  3.534189e-01    2.839228e-02
  4.645479e-01    2.196978e-02
  5.756770e-01    3.781030e-02
  6.868060e-01    5.799245e-02
  7.979350e-01    1.566640e-01
  9.090640e-01    5.429722e-01
  1.020193e+00    1.335958e+00
  1.131322e+00    1.556195e+00
  1.242451e+00    2.472430e+00
  1.353580e+00    2.817635e+00
  1.464709e+00    3.059683e+00
  1.575838e+00    3.091321e+00
  1.686967e+00    2.916088e+00
  1.798096e+00    3.195025e+00
  1.909225e+00    2.831297e+00
  2.020354e+00    3.039697e+00
  2.131483e+00    3.137212e+00
  2.242612e+00    3.084125e+00
  2.353741e+00    3.070870e+00
  2.464870e+00    3.019665e+00
  2.575999e+00    3.153638e+00
  2.687128e+00    3.098107e+00
  2.798257e+00    3.250495e+00
  2.909386e+00    3.266179e+00
  3.020515e+00    3.201090e+00
  3.131644e+00    3.385240e+00
  3.242773e+00    3.342474e+00
  3.353902e+00    3.473935e+00
  3.465031e+00    3.371131e+00
  3.576160e+00    3.389990e+00
  3.687289e+00    3.411434e+00
  3.798418e+00    3.437328e+00
  3.909547e+00    3.544897e+00
  4.020676e+00    3.434291e+00
  4.131806e+00    3.598626e+00
  4.242935e+00    3.476202e+00
  4.354064e+00    3.533166e+00
  4.465193e+00    3.576467e+00
  4.576322e+00    3.588463e+00
  4.687451e+00    3.555284e+00
  4.798580e+00    3.629699e+00
  4.909709e+00    3.651165e+00
  5.020838e+00    3.612642e+00
  5.131967e+00    3.650683e+00
  5.243096e+00    3.653416e+00
  5.354225e+00    3.647001e+00
  5.465354e+00    3.517549e+00
  5.576483e+00    3.641783e+00
  5.687612e+00    3.532928e+00
  5.798741e+00    3.526999e+00
  5.909870e+00    3.593184e+00
  6.020999e+00    3.450117e+00
  6.132128e+00    3.692856e+00
  6.243257e+00    3.648905e+00
  6.354386e+00    3.491752e+00
  6.465515e+00    3.491302e+00
  6.576644e+00    3.530108e+00
  6.687773e+00    3.588496e+00
  6.798902e+00    3.469864e+00
  6.910031e+00    3.549009e+00
  7.021160e+00    3.522866e+00
  7.132289e+00    3.504436e+00
  7.243418e+00    3.456713e+00
  7.354547e+00    3.580379e+00
  7.465676e+00    3.493906e+00
  7.576805e+00    3.391296e+00
  7.687934e+00    3.479433e+00
  7.799063e+00    3.407019e+00
  7.910192e+00    3.375308e+00
  8.021321e+00    3.420462e+00
  8.132450e+00    3.548503e+00
  8.243579e+00    3.388706e+00
  8.354708e+00    3.406687e+00
  8.465837e+00    3.356414e+00
  8.576966e+00    3.377807e+00
  8.688095e+00    3.256317e+00
  8.799224e+00    3.274837e+00
  8.910353e+00    3.287046e+00
  9.021482e+00    3.245744e+00
  9.132611e+00    3.233712e+00
  9.243740e+00    3.248562e+00
  9.354869e+00    3.215600e+00
  9.465998e+00    3.216924e+00
  9.577127e+00    3.229217e+00
  9.688256e+00    3.181206e+00
  9.799385e+00    3.199884e+00
  9.910514e+00    3.111017e+00
  1.002164e+01    3.059015e+00
  1.013277e+01    2.999007e+00
  1.024390e+01    2.987532e+00
  1.035503e+01    3.032600e+00
  1.046616e+01    3.031288e+00
  1.057729e+01    2.984756e+00
  1.068842e+01    2.977664e+00
  1.079955e+01    2.942339e+00
  1.091068e+01    2.921331e+00
  1.102180e+01    2.825553e+00
  1.113293e+01    2.893488e+00
  1.124406e+01    2.866372e+00
  1.135519e+01    2.835835e+00
  1.146632e+01    2.796011e+00
  1.157745e+01    2.821460e+00
  1.168858e+01    2.721315e+00
  1.179971e+01    2.723232e+00
  1.191084e+01    2.715582e+00
  1.202197e+01    2.748297e+00
  1.213309e+01    2.679265e+00
  1.224422e+01    2.718359e+00
  1.235535e+01    2.708241e+00
  1.246648e+01    2.638805e+00
  1.257761e+01    2.755947e+00
  1.268874e+01    2.830149e+00
  1.279987e+01    2.992480e+00
  1.291100e+01    3.614003e+00
  1.302213e+01    6.603514e+00
  1.313326e+01    1.461920e+01
  1.324438e+01    1.060145e+01
  1.335551e+01    4.365159e+00
  1.346664e+01    3.074298e+00
  1.357777e+01    2.687586e+00
  1.368890e+01    2.579439e+00
  1.380003e+01    2.454195e+00
  1.391116e+01    2.408696e+00
  1.402229e+01    2.313075e+00
  1.413342e+01    2.342683e+00
  1.424455e+01    2.272983e+00
  1.435568e+01    2.216208e+00
  1.446680e+01    2.215828e+00
  1.457793e+01    2.225122e+00
  1.468906e+01    2.248173e+00
  1.480019e+01    2.203665e+00
  1.491132e+01    2.249491e+00
  1.502245e+01    2.516213e+00
  1.513358e+01    3.744239e+00
  1.524471e+01    5.693335e+00
  1.535584e+01    3.806517e+00
  1.546697e+01    2.434492e+00
  1.557809e+01    2.134011e+00
  1.568922e+01    2.004879e+00
  1.580035e+01    1.914974e+00
  1.591148e+01    1.877171e+00
  1.602261e+01    1.866277e+00
  1.613374e+01    1.815166e+00
  1.624487e+01    1.842138e+00
  1.635600e+01    1.783802e+00
  1.646713e+01    1.721769e+00
  1.657826e+01    1.744088e+00
  1.668938e+01    1.725676e+00
  1.680051e+01    1.685378e+00
  1.691164e+01    1.660674e+00
  1.702277e+01    1.665310e+00
  1.713390e+01    1.615823e+00
  1.724503e+01    1.610000e+00
  1.735616e+01    1.580472e+00
  1.746729e+01    1.605282e+00
  1.757842e+01    1.558924e+00
  1.768955e+01    1.553970e+00
  1.780067e+01    1.502216e+00
  1.791180e+01    1.501355e+00
  1.802293e+01    1.472063e+00
  1.813406e+01    1.517491e+00
  1.824519e+01    1.479019e+00
  1.835632e+01    1.468579e+00
  1.846745e+01    1.429167e+00
  1.857858e+01    1.423439e+00
  1.868971e+01    1.432409e+00
  1.880084e+01    1.362667e+00
  1.891196e+01    1.358011e+00
  1.902309e+01    1.357386e+00
  1.913422e+01    1.365000e+00
  1.924535e+01    1.336500e+00
  1.935648e+01    1.361556e+00
  1.946761e+01    1.337688e+00
  1.957874e+01    1.342953e+00
  1.968987e+01    1.301197e+00
  1.980100e+01    1.292306e+00
  1.991213e+01    1.269328e+00
  2.002325e+01    1.276709e+00
  2.013438e+01    1.251857e+00
  2.024551e+01    1.246778e+00
  2.035664e+01    1.201858e+00
  2.046777e+01    1.242026e+00
  2.057890e+01    1.225640e+00
  2.069003e+01    1.212932e+00
  2.080116e+01    1.235194e+00
  2.091229e+01    1.214978e+00
  2.102342e+01    1.229741e+00
  2.113455e+01    1.226602e+00
  2.124567e+01    1.258559e+00
  2.135680e+01    1.246435e+00
  2.146793e+01    1.374253e+00
  2.157906e+01    1.591012e+00
  2.169019e+01    2.472158e+00
  2.180132e+01    5.721781e+00
  2.191245e+01    8.684938e+00
  2.202358e+01    3.610966e+00
  2.213471e+01    1.834899e+00
  2.224584e+01    1.403679e+00
  2.235696e+01    1.238011e+00
  2.246809e+01    1.171001e+00
  2.257922e+01    1.106776e+00
  2.269035e+01    1.087043e+00
  2.280148e+01    1.052683e+00
  2.291261e+01    1.033554e+00
  2.302374e+01    9.992623e-01
  2.313487e+01    9.838020e-01
  2.324600e+01    9.858206e-01
  2.335713e+01    9.632058e-01
  2.346825e+01    9.738985e-01
  2.357938e+01    9.470157e-01
  2.369051e+01    9.647361e-01
  2.380164e+01    9.405790e-01
  2.391277e+01    9.178590e-01
  2.402390e+01    8.964633e-01
  2.413503e+01    8.863409e-01
  2.424616e+01    8.689218e-01
  2.435729e+01    8.775226e-01
  2.446842e+01    8.806489e-01
  2.457954e+01    9.005405e-01
  2.469067e+01    8.822878e-01
  2.480180e+01    8.751745e-01
  2.491293e+01    8.915398e-01
  2.502406e+01    8.985270e-01
  2.513519e+01    9.140493e-01
  2.524632e+01    9.127102e-01
  2.535745e+01    9.966866e-01
  2.546858e+01    1.040511e+00
  2.557971e+01    1.153464e+00
  2.569083e+01    1.491647e+00
  2.580196e+01    2.753235e+00
  2.591309e+01    6.211780e+00
  2.602422e+01    5.280854e+00
  2.613535e+01    2.119797e+00
  2.624648e+01    1.320276e+00
  2.635761e+01    1.089786e+00
  2.646874e+01    1.001390e+00
  2.657987e+01    9.589752e-01
  2.669100e+01    9.636081e-01
  2.680212e+01    9.769490e-01
  2.691325e+01    9.763850e-01
  2.702438e+01    1.111749e+00
  2.713551e+01    1.687514e+00
  2.724664e+01    2.067514e+00
  2.735777e+01    1.281927e+00
  2.746890e+01    1.012971e+00
  2.758003e+01    9.283999e-01
  2.769116e+01    8.927473e-01
  2.780229e+01    8.881616e-01
  2.791342e+01    8.862762e-01
  2.802454e+01    8.204415e-01
  2.813567e+01    8.546245e-01
  2.824680e+01    8.457342e-01
  2.835793e+01    8.358513e-01
  2.846906e+01    8.453993e-01
  2.858019e+01    8.205072e-01
  2.869132e+01    8.178060e-01
  2.880245e+01    8.229439e-01
  2.891358e+01    8.379642e-01
  2.902471e+01    8.062176e-01
  2.913583e+01    8.059615e-01
  2.924696e+01    8.109514e-01
  2.935809e+01    8.010545e-01
  2.946922e+01    7.940142e-01
  2.958035e+01    8.175140e-01
  2.969148e+01    7.949230e-01
  2.980261e+01    7.706305e-01
  2.991374e+01    7.942919e-01
  3.002487e+01    8.003918e-01
  3.013600e+01    7.882504e-01
  3.024712e+01    7.740659e-01
  3.035825e+01    7.837159e-01
  3.046938e+01    7.627124e-01
  3.058051e+01    7.765892e-01
  3.069164e+01    7.839819e-01
  3.080277e+01    7.682706e-01
  3.091390e+01    7.706432e-01
  3.102503e+01    7.649385e-01
  3.113616e+01    7.753841e-01
  3.124729e+01    7.828877e-01
  3.135841e+01    8.164787e-01
  3.146954e+01    8.091311e-01
  3.158067e+01    8.405984e-01
  3.169180e+01    9.626619e-01
  3.180293e+01    1.425785e+00
  3.191406e+01    2.059007e+00
  3.202519e+01    1.325127e+00
  3.213632e+01    9.375454e-01
  3.224745e+01    8.278580e-01
  3.235858e+01    7.792237e-01
  3.246970e+01    7.645468e-01
  3.254908e+01    7.786986e-01