File: XRD/Reaction conditions/2024-07-27_003_Ru-CGO-ex_Reaction_dwell_000023_data_000172.dat
# == pyFAI calibration ==
# Distance Sample to Detector: 0.4 m
# PONI: 9.750e-02, 1.135e-01 m
# Rotations: -0.000175 0.000000 -0.000000 rad
#
# == Fit2d calibration ==
# Distance Sample-beamCenter: 400.000 mm
# Center: x=1514.000, y=1300.000 pix
# Tilt: 0.010 deg  TiltPlanRot: 0.010 deg
#
# Detector Detector	 Spline= None	 PixelSize= 7.500e-05, 7.500e-05 m
#    Detector has a mask: False
#    Detector has a dark current: False
#    detector has a flat field: False
#
# Wavelength: 6.888e-11 m
# Mask applied: user provided
# Dark current applied: False
# Flat field applied: False
# Polarization factor: 0.99
# Normalization factor: 1.0
# --> /home/myspot/data/2024_07_Rosario/Ru-CGO-ex/2024-07-27_003_Ru-CGO-ex_Reaction_dwell_000023_data_000172.dat
#       q_nm^-1             I
  2.003187e-02    0.000000e+00
  1.311609e-01    1.852704e-02
  2.422899e-01    5.583143e-02
  3.534189e-01    2.647509e-02
  4.645479e-01    3.085894e-02
  5.756770e-01    2.459626e-02
  6.868060e-01    6.325556e-02
  7.979350e-01    1.601257e-01
  9.090640e-01    6.258323e-01
  1.020193e+00    1.314487e+00
  1.131322e+00    1.527782e+00
  1.242451e+00    2.253186e+00
  1.353580e+00    2.687172e+00
  1.464709e+00    3.024803e+00
  1.575838e+00    3.374498e+00
  1.686967e+00    3.244769e+00
  1.798096e+00    3.015512e+00
  1.909225e+00    2.991765e+00
  2.020354e+00    3.151378e+00
  2.131483e+00    3.151113e+00
  2.242612e+00    3.047182e+00
  2.353741e+00    3.096378e+00
  2.464870e+00    3.030144e+00
  2.575999e+00    3.157294e+00
  2.687128e+00    3.194660e+00
  2.798257e+00    3.233361e+00
  2.909386e+00    3.323151e+00
  3.020515e+00    3.391229e+00
  3.131644e+00    3.367238e+00
  3.242773e+00    3.309062e+00
  3.353902e+00    3.362019e+00
  3.465031e+00    3.360260e+00
  3.576160e+00    3.448076e+00
  3.687289e+00    3.470561e+00
  3.798418e+00    3.415547e+00
  3.909547e+00    3.393024e+00
  4.020676e+00    3.533788e+00
  4.131806e+00    3.511283e+00
  4.242935e+00    3.443735e+00
  4.354064e+00    3.543201e+00
  4.465193e+00    3.539760e+00
  4.576322e+00    3.528214e+00
  4.687451e+00    3.613329e+00
  4.798580e+00    3.611976e+00
  4.909709e+00    3.600738e+00
  5.020838e+00    3.545562e+00
  5.131967e+00    3.607634e+00
  5.243096e+00    3.607914e+00
  5.354225e+00    3.657478e+00
  5.465354e+00    3.565709e+00
  5.576483e+00    3.573340e+00
  5.687612e+00    3.638484e+00
  5.798741e+00    3.530199e+00
  5.909870e+00    3.557540e+00
  6.020999e+00    3.592119e+00
  6.132128e+00    3.623824e+00
  6.243257e+00    3.578386e+00
  6.354386e+00    3.466153e+00
  6.465515e+00    3.515204e+00
  6.576644e+00    3.489529e+00
  6.687773e+00    3.501528e+00
  6.798902e+00    3.466393e+00
  6.910031e+00    3.442518e+00
  7.021160e+00    3.480765e+00
  7.132289e+00    3.458918e+00
  7.243418e+00    3.438412e+00
  7.354547e+00    3.488730e+00
  7.465676e+00    3.493729e+00
  7.576805e+00    3.434694e+00
  7.687934e+00    3.477967e+00
  7.799063e+00    3.416459e+00
  7.910192e+00    3.353940e+00
  8.021321e+00    3.473993e+00
  8.132450e+00    3.388454e+00
  8.243579e+00    3.434585e+00
  8.354708e+00    3.287228e+00
  8.465837e+00    3.412885e+00
  8.576966e+00    3.272004e+00
  8.688095e+00    3.274272e+00
  8.799224e+00    3.319485e+00
  8.910353e+00    3.211091e+00
  9.021482e+00    3.191208e+00
  9.132611e+00    3.143883e+00
  9.243740e+00    3.259655e+00
  9.354869e+00    3.179202e+00
  9.465998e+00    3.193093e+00
  9.577127e+00    3.203884e+00
  9.688256e+00    3.227050e+00
  9.799385e+00    3.131028e+00
  9.910514e+00    3.099001e+00
  1.002164e+01    3.057221e+00
  1.013277e+01    3.028719e+00
  1.024390e+01    3.052340e+00
  1.035503e+01    2.986385e+00
  1.046616e+01    2.968057e+00
  1.057729e+01    2.978299e+00
  1.068842e+01    2.920295e+00
  1.079955e+01    2.919925e+00
  1.091068e+01    2.902130e+00
  1.102180e+01    2.869146e+00
  1.113293e+01    2.893545e+00
  1.124406e+01    2.823833e+00
  1.135519e+01    2.807168e+00
  1.146632e+01    2.698825e+00
  1.157745e+01    2.736490e+00
  1.168858e+01    2.751959e+00
  1.179971e+01    2.706033e+00
  1.191084e+01    2.669348e+00
  1.202197e+01    2.651389e+00
  1.213309e+01    2.627097e+00
  1.224422e+01    2.649048e+00
  1.235535e+01    2.669806e+00
  1.246648e+01    2.636019e+00
  1.257761e+01    2.745158e+00
  1.268874e+01    2.813348e+00
  1.279987e+01    2.924109e+00
  1.291100e+01    3.608234e+00
  1.302213e+01    6.634247e+00
  1.313326e+01    1.467219e+01
  1.324438e+01    1.037246e+01
  1.335551e+01    4.407674e+00
  1.346664e+01    3.129574e+00
  1.357777e+01    2.710615e+00
  1.368890e+01    2.553430e+00
  1.380003e+01    2.462937e+00
  1.391116e+01    2.409972e+00
  1.402229e+01    2.344725e+00
  1.413342e+01    2.322360e+00
  1.424455e+01    2.238302e+00
  1.435568e+01    2.217935e+00
  1.446680e+01    2.230401e+00
  1.457793e+01    2.178702e+00
  1.468906e+01    2.175759e+00
  1.480019e+01    2.202954e+00
  1.491132e+01    2.238443e+00
  1.502245e+01    2.471370e+00
  1.513358e+01    3.722252e+00
  1.524471e+01    5.684867e+00
  1.535584e+01    3.683178e+00
  1.546697e+01    2.368533e+00
  1.557809e+01    2.092073e+00
  1.568922e+01    1.961369e+00
  1.580035e+01    1.931547e+00
  1.591148e+01    1.888240e+00
  1.602261e+01    1.826022e+00
  1.613374e+01    1.792047e+00
  1.624487e+01    1.823441e+00
  1.635600e+01    1.771544e+00
  1.646713e+01    1.756691e+00
  1.657826e+01    1.715462e+00
  1.668938e+01    1.709732e+00
  1.680051e+01    1.660680e+00
  1.691164e+01    1.689228e+00
  1.702277e+01    1.670092e+00
  1.713390e+01    1.649432e+00
  1.724503e+01    1.588449e+00
  1.735616e+01    1.578401e+00
  1.746729e+01    1.527997e+00
  1.757842e+01    1.551050e+00
  1.768955e+01    1.544435e+00
  1.780067e+01    1.532757e+00
  1.791180e+01    1.479218e+00
  1.802293e+01    1.482335e+00
  1.813406e+01    1.483043e+00
  1.824519e+01    1.435559e+00
  1.835632e+01    1.440909e+00
  1.846745e+01    1.412996e+00
  1.857858e+01    1.418737e+00
  1.868971e+01    1.399489e+00
  1.880084e+01    1.363218e+00
  1.891196e+01    1.373325e+00
  1.902309e+01    1.359817e+00
  1.913422e+01    1.354897e+00
  1.924535e+01    1.354070e+00
  1.935648e+01    1.310176e+00
  1.946761e+01    1.288481e+00
  1.957874e+01    1.323966e+00
  1.968987e+01    1.303203e+00
  1.980100e+01    1.313660e+00
  1.991213e+01    1.262750e+00
  2.002325e+01    1.281891e+00
  2.013438e+01    1.248193e+00
  2.024551e+01    1.252727e+00
  2.035664e+01    1.220014e+00
  2.046777e+01    1.223028e+00
  2.057890e+01    1.219623e+00
  2.069003e+01    1.226152e+00
  2.080116e+01    1.234400e+00
  2.091229e+01    1.213738e+00
  2.102342e+01    1.186603e+00
  2.113455e+01    1.215816e+00
  2.124567e+01    1.254670e+00
  2.135680e+01    1.272932e+00
  2.146793e+01    1.356971e+00
  2.157906e+01    1.592416e+00
  2.169019e+01    2.494085e+00
  2.180132e+01    5.846925e+00
  2.191245e+01    8.616296e+00
  2.202358e+01    3.528430e+00
  2.213471e+01    1.875508e+00
  2.224584e+01    1.387825e+00
  2.235696e+01    1.228000e+00
  2.246809e+01    1.128408e+00
  2.257922e+01    1.088385e+00
  2.269035e+01    1.065922e+00
  2.280148e+01    1.040656e+00
  2.291261e+01    1.012064e+00
  2.302374e+01    1.014821e+00
  2.313487e+01    9.824820e-01
  2.324600e+01    9.657148e-01
  2.335713e+01    9.612290e-01
  2.346825e+01    9.651387e-01
  2.357938e+01    9.496955e-01
  2.369051e+01    9.097969e-01
  2.380164e+01    9.061350e-01
  2.391277e+01    8.934761e-01
  2.402390e+01    8.846985e-01
  2.413503e+01    8.878127e-01
  2.424616e+01    8.607486e-01
  2.435729e+01    9.022552e-01
  2.446842e+01    8.856725e-01
  2.457954e+01    9.016340e-01
  2.469067e+01    8.848730e-01
  2.480180e+01    8.554132e-01
  2.491293e+01    8.792315e-01
  2.502406e+01    8.906252e-01
  2.513519e+01    9.120219e-01
  2.524632e+01    9.215587e-01
  2.535745e+01    9.345325e-01
  2.546858e+01    1.020003e+00
  2.557971e+01    1.122116e+00
  2.569083e+01    1.473584e+00
  2.580196e+01    2.814562e+00
  2.591309e+01    6.332564e+00
  2.602422e+01    5.104630e+00
  2.613535e+01    2.044062e+00
  2.624648e+01    1.342675e+00
  2.635761e+01    1.083493e+00
  2.646874e+01    1.004682e+00
  2.657987e+01    9.764398e-01
  2.669100e+01    9.506434e-01
  2.680212e+01    9.637153e-01
  2.691325e+01    9.982390e-01
  2.702438e+01    1.136077e+00
  2.713551e+01    1.712077e+00
  2.724664e+01    2.057349e+00
  2.735777e+01    1.235579e+00
  2.746890e+01    9.744249e-01
  2.758003e+01    9.156621e-01
  2.769116e+01    9.016356e-01
  2.780229e+01    8.669575e-01
  2.791342e+01    8.647535e-01
  2.802454e+01    8.615642e-01
  2.813567e+01    8.527097e-01
  2.824680e+01    8.571168e-01
  2.835793e+01    8.369625e-01
  2.846906e+01    8.299969e-01
  2.858019e+01    8.327046e-01
  2.869132e+01    8.186725e-01
  2.880245e+01    8.027188e-01
  2.891358e+01    8.450394e-01
  2.902471e+01    8.041689e-01
  2.913583e+01    8.072994e-01
  2.924696e+01    8.040372e-01
  2.935809e+01    8.061960e-01
  2.946922e+01    7.832921e-01
  2.958035e+01    8.248905e-01
  2.969148e+01    7.958333e-01
  2.980261e+01    7.590321e-01
  2.991374e+01    7.816945e-01
  3.002487e+01    8.024117e-01
  3.013600e+01    7.558787e-01
  3.024712e+01    7.715377e-01
  3.035825e+01    7.608191e-01
  3.046938e+01    7.717240e-01
  3.058051e+01    7.829261e-01
  3.069164e+01    7.521774e-01
  3.080277e+01    7.624433e-01
  3.091390e+01    7.659038e-01
  3.102503e+01    7.584432e-01
  3.113616e+01    7.807612e-01
  3.124729e+01    7.815076e-01
  3.135841e+01    7.870256e-01
  3.146954e+01    7.954767e-01
  3.158067e+01    8.455549e-01
  3.169180e+01    9.945043e-01
  3.180293e+01    1.455395e+00
  3.191406e+01    2.063285e+00
  3.202519e+01    1.303447e+00
  3.213632e+01    9.337900e-01
  3.224745e+01    8.372268e-01
  3.235858e+01    8.042077e-01
  3.246970e+01    7.634571e-01
  3.254908e+01    7.663153e-01