File: XRD/Reaction conditions/2024-07-27_003_Ru-CGO-ex_Reaction_dwell_000023_data_000068.dat
# == pyFAI calibration ==
# Distance Sample to Detector: 0.4 m
# PONI: 9.750e-02, 1.135e-01 m
# Rotations: -0.000175 0.000000 -0.000000 rad
#
# == Fit2d calibration ==
# Distance Sample-beamCenter: 400.000 mm
# Center: x=1514.000, y=1300.000 pix
# Tilt: 0.010 deg  TiltPlanRot: 0.010 deg
#
# Detector Detector	 Spline= None	 PixelSize= 7.500e-05, 7.500e-05 m
#    Detector has a mask: False
#    Detector has a dark current: False
#    detector has a flat field: False
#
# Wavelength: 6.888e-11 m
# Mask applied: user provided
# Dark current applied: False
# Flat field applied: False
# Polarization factor: 0.99
# Normalization factor: 1.0
# --> /home/myspot/data/2024_07_Rosario/Ru-CGO-ex/2024-07-27_003_Ru-CGO-ex_Reaction_dwell_000023_data_000068.dat
#       q_nm^-1             I
  2.003187e-02    0.000000e+00
  1.311609e-01    0.000000e+00
  2.422899e-01    6.583267e-02
  3.534189e-01    7.422465e-02
  4.645479e-01    4.079744e-02
  5.756770e-01    4.303658e-02
  6.868060e-01    2.483786e-02
  7.979350e-01    1.357847e-01
  9.090640e-01    6.426412e-01
  1.020193e+00    1.207152e+00
  1.131322e+00    1.584191e+00
  1.242451e+00    2.324873e+00
  1.353580e+00    2.595335e+00
  1.464709e+00    2.980394e+00
  1.575838e+00    3.296628e+00
  1.686967e+00    3.206543e+00
  1.798096e+00    3.013674e+00
  1.909225e+00    3.108632e+00
  2.020354e+00    3.110065e+00
  2.131483e+00    3.039721e+00
  2.242612e+00    3.081762e+00
  2.353741e+00    3.186570e+00
  2.464870e+00    3.227084e+00
  2.575999e+00    3.285800e+00
  2.687128e+00    3.314514e+00
  2.798257e+00    3.411221e+00
  2.909386e+00    3.216025e+00
  3.020515e+00    3.369136e+00
  3.131644e+00    3.282522e+00
  3.242773e+00    3.334375e+00
  3.353902e+00    3.363550e+00
  3.465031e+00    3.477838e+00
  3.576160e+00    3.447052e+00
  3.687289e+00    3.544620e+00
  3.798418e+00    3.518512e+00
  3.909547e+00    3.466934e+00
  4.020676e+00    3.528403e+00
  4.131806e+00    3.551263e+00
  4.242935e+00    3.629175e+00
  4.354064e+00    3.561898e+00
  4.465193e+00    3.531364e+00
  4.576322e+00    3.510760e+00
  4.687451e+00    3.546517e+00
  4.798580e+00    3.567085e+00
  4.909709e+00    3.648332e+00
  5.020838e+00    3.648697e+00
  5.131967e+00    3.654684e+00
  5.243096e+00    3.680585e+00
  5.354225e+00    3.744342e+00
  5.465354e+00    3.592782e+00
  5.576483e+00    3.561452e+00
  5.687612e+00    3.602039e+00
  5.798741e+00    3.594024e+00
  5.909870e+00    3.546072e+00
  6.020999e+00    3.540808e+00
  6.132128e+00    3.598804e+00
  6.243257e+00    3.639076e+00
  6.354386e+00    3.508759e+00
  6.465515e+00    3.619343e+00
  6.576644e+00    3.567199e+00
  6.687773e+00    3.558116e+00
  6.798902e+00    3.512465e+00
  6.910031e+00    3.496053e+00
  7.021160e+00    3.580569e+00
  7.132289e+00    3.578733e+00
  7.243418e+00    3.529186e+00
  7.354547e+00    3.557574e+00
  7.465676e+00    3.507632e+00
  7.576805e+00    3.461416e+00
  7.687934e+00    3.502194e+00
  7.799063e+00    3.434657e+00
  7.910192e+00    3.450763e+00
  8.021321e+00    3.394388e+00
  8.132450e+00    3.413464e+00
  8.243579e+00    3.531035e+00
  8.354708e+00    3.335613e+00
  8.465837e+00    3.391922e+00
  8.576966e+00    3.355220e+00
  8.688095e+00    3.316637e+00
  8.799224e+00    3.319935e+00
  8.910353e+00    3.312937e+00
  9.021482e+00    3.288086e+00
  9.132611e+00    3.303976e+00
  9.243740e+00    3.215161e+00
  9.354869e+00    3.216050e+00
  9.465998e+00    3.193421e+00
  9.577127e+00    3.212300e+00
  9.688256e+00    3.118013e+00
  9.799385e+00    3.126839e+00
  9.910514e+00    3.064328e+00
  1.002164e+01    3.121100e+00
  1.013277e+01    3.126203e+00
  1.024390e+01    3.040729e+00
  1.035503e+01    3.020583e+00
  1.046616e+01    3.084459e+00
  1.057729e+01    2.950377e+00
  1.068842e+01    2.995278e+00
  1.079955e+01    2.975775e+00
  1.091068e+01    2.986581e+00
  1.102180e+01    2.912104e+00
  1.113293e+01    2.877005e+00
  1.124406e+01    2.863696e+00
  1.135519e+01    2.806465e+00
  1.146632e+01    2.808484e+00
  1.157745e+01    2.765562e+00
  1.168858e+01    2.819082e+00
  1.179971e+01    2.741347e+00
  1.191084e+01    2.743619e+00
  1.202197e+01    2.684356e+00
  1.213309e+01    2.711806e+00
  1.224422e+01    2.670478e+00
  1.235535e+01    2.715159e+00
  1.246648e+01    2.705795e+00
  1.257761e+01    2.760017e+00
  1.268874e+01    2.788874e+00
  1.279987e+01    2.981526e+00
  1.291100e+01    3.606678e+00
  1.302213e+01    6.739802e+00
  1.313326e+01    1.489002e+01
  1.324438e+01    1.049659e+01
  1.335551e+01    4.433367e+00
  1.346664e+01    3.117602e+00
  1.357777e+01    2.715028e+00
  1.368890e+01    2.568025e+00
  1.380003e+01    2.463945e+00
  1.391116e+01    2.380803e+00
  1.402229e+01    2.376262e+00
  1.413342e+01    2.310341e+00
  1.424455e+01    2.273984e+00
  1.435568e+01    2.267155e+00
  1.446680e+01    2.270924e+00
  1.457793e+01    2.212170e+00
  1.468906e+01    2.286513e+00
  1.480019e+01    2.181576e+00
  1.491132e+01    2.236582e+00
  1.502245e+01    2.506710e+00
  1.513358e+01    3.777674e+00
  1.524471e+01    5.709867e+00
  1.535584e+01    3.691278e+00
  1.546697e+01    2.398580e+00
  1.557809e+01    2.171801e+00
  1.568922e+01    2.011821e+00
  1.580035e+01    1.926291e+00
  1.591148e+01    1.885315e+00
  1.602261e+01    1.852910e+00
  1.613374e+01    1.853770e+00
  1.624487e+01    1.813283e+00
  1.635600e+01    1.803741e+00
  1.646713e+01    1.756216e+00
  1.657826e+01    1.750334e+00
  1.668938e+01    1.723793e+00
  1.680051e+01    1.665087e+00
  1.691164e+01    1.702972e+00
  1.702277e+01    1.676801e+00
  1.713390e+01    1.649643e+00
  1.724503e+01    1.645206e+00
  1.735616e+01    1.620430e+00
  1.746729e+01    1.569139e+00
  1.757842e+01    1.565393e+00
  1.768955e+01    1.535390e+00
  1.780067e+01    1.524573e+00
  1.791180e+01    1.534195e+00
  1.802293e+01    1.504429e+00
  1.813406e+01    1.477951e+00
  1.824519e+01    1.485671e+00
  1.835632e+01    1.468647e+00
  1.846745e+01    1.453762e+00
  1.857858e+01    1.446882e+00
  1.868971e+01    1.417860e+00
  1.880084e+01    1.416089e+00
  1.891196e+01    1.377204e+00
  1.902309e+01    1.395387e+00
  1.913422e+01    1.357761e+00
  1.924535e+01    1.375494e+00
  1.935648e+01    1.358895e+00
  1.946761e+01    1.312019e+00
  1.957874e+01    1.327027e+00
  1.968987e+01    1.320436e+00
  1.980100e+01    1.306051e+00
  1.991213e+01    1.303314e+00
  2.002325e+01    1.274614e+00
  2.013438e+01    1.281377e+00
  2.024551e+01    1.248877e+00
  2.035664e+01    1.269188e+00
  2.046777e+01    1.247303e+00
  2.057890e+01    1.247623e+00
  2.069003e+01    1.211640e+00
  2.080116e+01    1.216769e+00
  2.091229e+01    1.207770e+00
  2.102342e+01    1.207919e+00
  2.113455e+01    1.204192e+00
  2.124567e+01    1.242563e+00
  2.135680e+01    1.296272e+00
  2.146793e+01    1.387663e+00
  2.157906e+01    1.637726e+00
  2.169019e+01    2.542748e+00
  2.180132e+01    5.920378e+00
  2.191245e+01    8.703414e+00
  2.202358e+01    3.542537e+00
  2.213471e+01    1.852220e+00
  2.224584e+01    1.394504e+00
  2.235696e+01    1.230807e+00
  2.246809e+01    1.174255e+00
  2.257922e+01    1.124072e+00
  2.269035e+01    1.066412e+00
  2.280148e+01    1.045055e+00
  2.291261e+01    1.044844e+00
  2.302374e+01    1.005824e+00
  2.313487e+01    9.865631e-01
  2.324600e+01    9.806643e-01
  2.335713e+01    9.883800e-01
  2.346825e+01    9.846683e-01
  2.357938e+01    9.468641e-01
  2.369051e+01    9.452302e-01
  2.380164e+01    9.353667e-01
  2.391277e+01    9.183347e-01
  2.402390e+01    8.798042e-01
  2.413503e+01    8.852154e-01
  2.424616e+01    8.850358e-01
  2.435729e+01    8.937149e-01
  2.446842e+01    8.915918e-01
  2.457954e+01    9.022747e-01
  2.469067e+01    8.881756e-01
  2.480180e+01    9.214999e-01
  2.491293e+01    8.869490e-01
  2.502406e+01    9.075525e-01
  2.513519e+01    9.017636e-01
  2.524632e+01    9.336077e-01
  2.535745e+01    9.822620e-01
  2.546858e+01    1.055106e+00
  2.557971e+01    1.152786e+00
  2.569083e+01    1.534089e+00
  2.580196e+01    2.846448e+00
  2.591309e+01    6.375834e+00
  2.602422e+01    5.184796e+00
  2.613535e+01    2.084778e+00
  2.624648e+01    1.339706e+00
  2.635761e+01    1.106161e+00
  2.646874e+01    1.032531e+00
  2.657987e+01    1.012443e+00
  2.669100e+01    9.757426e-01
  2.680212e+01    9.671303e-01
  2.691325e+01    1.028671e+00
  2.702438e+01    1.158113e+00
  2.713551e+01    1.750587e+00
  2.724664e+01    2.067554e+00
  2.735777e+01    1.292041e+00
  2.746890e+01    1.028428e+00
  2.758003e+01    9.414334e-01
  2.769116e+01    9.217802e-01
  2.780229e+01    9.019237e-01
  2.791342e+01    8.943185e-01
  2.802454e+01    8.776985e-01
  2.813567e+01    8.567742e-01
  2.824680e+01    8.594397e-01
  2.835793e+01    8.669734e-01
  2.846906e+01    8.351033e-01
  2.858019e+01    8.229746e-01
  2.869132e+01    8.446555e-01
  2.880245e+01    8.209183e-01
  2.891358e+01    8.185898e-01
  2.902471e+01    8.486599e-01
  2.913583e+01    8.286368e-01
  2.924696e+01    8.154301e-01
  2.935809e+01    8.064851e-01
  2.946922e+01    7.857543e-01
  2.958035e+01    8.048798e-01
  2.969148e+01    7.649077e-01
  2.980261e+01    7.957978e-01
  2.991374e+01    7.756192e-01
  3.002487e+01    8.126656e-01
  3.013600e+01    7.814384e-01
  3.024712e+01    7.819521e-01
  3.035825e+01    7.721088e-01
  3.046938e+01    7.563477e-01
  3.058051e+01    7.779068e-01
  3.069164e+01    7.860618e-01
  3.080277e+01    7.807302e-01
  3.091390e+01    7.940741e-01
  3.102503e+01    7.807189e-01
  3.113616e+01    7.884834e-01
  3.124729e+01    7.816423e-01
  3.135841e+01    7.928233e-01
  3.146954e+01    8.202043e-01
  3.158067e+01    8.620266e-01
  3.169180e+01    1.009760e+00
  3.180293e+01    1.461181e+00
  3.191406e+01    2.054040e+00
  3.202519e+01    1.302550e+00
  3.213632e+01    9.454904e-01
  3.224745e+01    8.335792e-01
  3.235858e+01    7.933035e-01
  3.246970e+01    7.912793e-01
  3.254908e+01    7.928657e-01