File: XRD/Reaction conditions/2024-07-27_003_Ru-CGO-ex_Reaction_dwell_000023_data_000106.dat
# == pyFAI calibration ==
# Distance Sample to Detector: 0.4 m
# PONI: 9.750e-02, 1.135e-01 m
# Rotations: -0.000175 0.000000 -0.000000 rad
#
# == Fit2d calibration ==
# Distance Sample-beamCenter: 400.000 mm
# Center: x=1514.000, y=1300.000 pix
# Tilt: 0.010 deg  TiltPlanRot: 0.010 deg
#
# Detector Detector	 Spline= None	 PixelSize= 7.500e-05, 7.500e-05 m
#    Detector has a mask: False
#    Detector has a dark current: False
#    detector has a flat field: False
#
# Wavelength: 6.888e-11 m
# Mask applied: user provided
# Dark current applied: False
# Flat field applied: False
# Polarization factor: 0.99
# Normalization factor: 1.0
# --> /home/myspot/data/2024_07_Rosario/Ru-CGO-ex/2024-07-27_003_Ru-CGO-ex_Reaction_dwell_000023_data_000106.dat
#       q_nm^-1             I
  2.003187e-02    3.620480e-01
  1.311609e-01    5.074476e-02
  2.422899e-01    6.146574e-02
  3.534189e-01    4.311500e-02
  4.645479e-01    4.468705e-02
  5.756770e-01    3.016715e-02
  6.868060e-01    3.483631e-02
  7.979350e-01    1.972848e-01
  9.090640e-01    6.055254e-01
  1.020193e+00    1.250373e+00
  1.131322e+00    1.547576e+00
  1.242451e+00    2.272436e+00
  1.353580e+00    2.858580e+00
  1.464709e+00    3.006042e+00
  1.575838e+00    2.986946e+00
  1.686967e+00    3.159341e+00
  1.798096e+00    2.930378e+00
  1.909225e+00    3.068482e+00
  2.020354e+00    3.049949e+00
  2.131483e+00    3.100775e+00
  2.242612e+00    3.089683e+00
  2.353741e+00    3.171656e+00
  2.464870e+00    3.105958e+00
  2.575999e+00    3.192291e+00
  2.687128e+00    3.264468e+00
  2.798257e+00    3.208587e+00
  2.909386e+00    3.305374e+00
  3.020515e+00    3.288942e+00
  3.131644e+00    3.369400e+00
  3.242773e+00    3.485015e+00
  3.353902e+00    3.479971e+00
  3.465031e+00    3.419341e+00
  3.576160e+00    3.414462e+00
  3.687289e+00    3.457550e+00
  3.798418e+00    3.527849e+00
  3.909547e+00    3.494661e+00
  4.020676e+00    3.462055e+00
  4.131806e+00    3.501107e+00
  4.242935e+00    3.548765e+00
  4.354064e+00    3.546029e+00
  4.465193e+00    3.630333e+00
  4.576322e+00    3.689636e+00
  4.687451e+00    3.589055e+00
  4.798580e+00    3.621297e+00
  4.909709e+00    3.735240e+00
  5.020838e+00    3.665901e+00
  5.131967e+00    3.678964e+00
  5.243096e+00    3.668228e+00
  5.354225e+00    3.661933e+00
  5.465354e+00    3.570372e+00
  5.576483e+00    3.516232e+00
  5.687612e+00    3.549860e+00
  5.798741e+00    3.560491e+00
  5.909870e+00    3.499910e+00
  6.020999e+00    3.526217e+00
  6.132128e+00    3.574516e+00
  6.243257e+00    3.573757e+00
  6.354386e+00    3.513573e+00
  6.465515e+00    3.541584e+00
  6.576644e+00    3.455308e+00
  6.687773e+00    3.498899e+00
  6.798902e+00    3.547965e+00
  6.910031e+00    3.621548e+00
  7.021160e+00    3.564095e+00
  7.132289e+00    3.586899e+00
  7.243418e+00    3.557479e+00
  7.354547e+00    3.543892e+00
  7.465676e+00    3.503301e+00
  7.576805e+00    3.514127e+00
  7.687934e+00    3.469511e+00
  7.799063e+00    3.532622e+00
  7.910192e+00    3.495495e+00
  8.021321e+00    3.429868e+00
  8.132450e+00    3.432763e+00
  8.243579e+00    3.448060e+00
  8.354708e+00    3.469740e+00
  8.465837e+00    3.311584e+00
  8.576966e+00    3.366371e+00
  8.688095e+00    3.314609e+00
  8.799224e+00    3.260616e+00
  8.910353e+00    3.304127e+00
  9.021482e+00    3.203691e+00
  9.132611e+00    3.264522e+00
  9.243740e+00    3.196788e+00
  9.354869e+00    3.208151e+00
  9.465998e+00    3.182018e+00
  9.577127e+00    3.192269e+00
  9.688256e+00    3.190842e+00
  9.799385e+00    3.151332e+00
  9.910514e+00    3.058009e+00
  1.002164e+01    3.120295e+00
  1.013277e+01    3.035089e+00
  1.024390e+01    3.093193e+00
  1.035503e+01    3.020027e+00
  1.046616e+01    2.964205e+00
  1.057729e+01    2.986337e+00
  1.068842e+01    3.012429e+00
  1.079955e+01    2.953899e+00
  1.091068e+01    2.973029e+00
  1.102180e+01    2.906533e+00
  1.113293e+01    2.930346e+00
  1.124406e+01    2.883412e+00
  1.135519e+01    2.843014e+00
  1.146632e+01    2.817126e+00
  1.157745e+01    2.851339e+00
  1.168858e+01    2.764950e+00
  1.179971e+01    2.717528e+00
  1.191084e+01    2.720229e+00
  1.202197e+01    2.730536e+00
  1.213309e+01    2.677797e+00
  1.224422e+01    2.730083e+00
  1.235535e+01    2.690089e+00
  1.246648e+01    2.681456e+00
  1.257761e+01    2.735254e+00
  1.268874e+01    2.791983e+00
  1.279987e+01    2.979450e+00
  1.291100e+01    3.647320e+00
  1.302213e+01    6.750552e+00
  1.313326e+01    1.482850e+01
  1.324438e+01    1.071623e+01
  1.335551e+01    4.488428e+00
  1.346664e+01    3.124711e+00
  1.357777e+01    2.781415e+00
  1.368890e+01    2.590444e+00
  1.380003e+01    2.478039e+00
  1.391116e+01    2.411076e+00
  1.402229e+01    2.368670e+00
  1.413342e+01    2.301086e+00
  1.424455e+01    2.276248e+00
  1.435568e+01    2.257748e+00
  1.446680e+01    2.212865e+00
  1.457793e+01    2.164635e+00
  1.468906e+01    2.175936e+00
  1.480019e+01    2.202852e+00
  1.491132e+01    2.293311e+00
  1.502245e+01    2.481654e+00
  1.513358e+01    3.786078e+00
  1.524471e+01    5.775691e+00
  1.535584e+01    3.766836e+00
  1.546697e+01    2.446808e+00
  1.557809e+01    2.113429e+00
  1.568922e+01    2.011316e+00
  1.580035e+01    1.944795e+00
  1.591148e+01    1.918524e+00
  1.602261e+01    1.857534e+00
  1.613374e+01    1.826519e+00
  1.624487e+01    1.769742e+00
  1.635600e+01    1.753333e+00
  1.646713e+01    1.791352e+00
  1.657826e+01    1.780966e+00
  1.668938e+01    1.703390e+00
  1.680051e+01    1.719092e+00
  1.691164e+01    1.685646e+00
  1.702277e+01    1.671625e+00
  1.713390e+01    1.623953e+00
  1.724503e+01    1.612962e+00
  1.735616e+01    1.602712e+00
  1.746729e+01    1.602206e+00
  1.757842e+01    1.573788e+00
  1.768955e+01    1.553374e+00
  1.780067e+01    1.508209e+00
  1.791180e+01    1.509843e+00
  1.802293e+01    1.550466e+00
  1.813406e+01    1.482583e+00
  1.824519e+01    1.503651e+00
  1.835632e+01    1.489810e+00
  1.846745e+01    1.427291e+00
  1.857858e+01    1.428628e+00
  1.868971e+01    1.421720e+00
  1.880084e+01    1.410499e+00
  1.891196e+01    1.395991e+00
  1.902309e+01    1.375075e+00
  1.913422e+01    1.369067e+00
  1.924535e+01    1.365263e+00
  1.935648e+01    1.342683e+00
  1.946761e+01    1.373386e+00
  1.957874e+01    1.346755e+00
  1.968987e+01    1.341529e+00
  1.980100e+01    1.312955e+00
  1.991213e+01    1.292863e+00
  2.002325e+01    1.281563e+00
  2.013438e+01    1.286062e+00
  2.024551e+01    1.227252e+00
  2.035664e+01    1.266657e+00
  2.046777e+01    1.234862e+00
  2.057890e+01    1.228416e+00
  2.069003e+01    1.217149e+00
  2.080116e+01    1.242184e+00
  2.091229e+01    1.230177e+00
  2.102342e+01    1.220178e+00
  2.113455e+01    1.238829e+00
  2.124567e+01    1.244072e+00
  2.135680e+01    1.253999e+00
  2.146793e+01    1.356828e+00
  2.157906e+01    1.628682e+00
  2.169019e+01    2.512284e+00
  2.180132e+01    5.887760e+00
  2.191245e+01    8.748875e+00
  2.202358e+01    3.645440e+00
  2.213471e+01    1.873441e+00
  2.224584e+01    1.404002e+00
  2.235696e+01    1.224884e+00
  2.246809e+01    1.186262e+00
  2.257922e+01    1.110636e+00
  2.269035e+01    1.071014e+00
  2.280148e+01    1.080393e+00
  2.291261e+01    1.041198e+00
  2.302374e+01    1.039242e+00
  2.313487e+01    9.916438e-01
  2.324600e+01    9.854512e-01
  2.335713e+01    9.861237e-01
  2.346825e+01    9.865672e-01
  2.357938e+01    9.525684e-01
  2.369051e+01    9.569639e-01
  2.380164e+01    9.499944e-01
  2.391277e+01    9.053859e-01
  2.402390e+01    9.111741e-01
  2.413503e+01    9.040706e-01
  2.424616e+01    8.994786e-01
  2.435729e+01    8.967872e-01
  2.446842e+01    8.877628e-01
  2.457954e+01    8.940715e-01
  2.469067e+01    8.921977e-01
  2.480180e+01    8.988457e-01
  2.491293e+01    8.872408e-01
  2.502406e+01    9.056865e-01
  2.513519e+01    9.149200e-01
  2.524632e+01    9.543279e-01
  2.535745e+01    9.648452e-01
  2.546858e+01    1.019428e+00
  2.557971e+01    1.156988e+00
  2.569083e+01    1.508120e+00
  2.580196e+01    2.805164e+00
  2.591309e+01    6.377349e+00
  2.602422e+01    5.310268e+00
  2.613535e+01    2.138091e+00
  2.624648e+01    1.342698e+00
  2.635761e+01    1.104781e+00
  2.646874e+01    1.024287e+00
  2.657987e+01    9.790031e-01
  2.669100e+01    9.769575e-01
  2.680212e+01    9.623886e-01
  2.691325e+01    9.876695e-01
  2.702438e+01    1.154649e+00
  2.713551e+01    1.736320e+00
  2.724664e+01    2.105115e+00
  2.735777e+01    1.298484e+00
  2.746890e+01    1.003770e+00
  2.758003e+01    9.464472e-01
  2.769116e+01    9.104264e-01
  2.780229e+01    9.022008e-01
  2.791342e+01    8.943193e-01
  2.802454e+01    8.825524e-01
  2.813567e+01    8.748477e-01
  2.824680e+01    8.520042e-01
  2.835793e+01    8.593817e-01
  2.846906e+01    8.328428e-01
  2.858019e+01    8.558658e-01
  2.869132e+01    8.265102e-01
  2.880245e+01    8.339225e-01
  2.891358e+01    8.328458e-01
  2.902471e+01    8.150224e-01
  2.913583e+01    8.162258e-01
  2.924696e+01    8.007960e-01
  2.935809e+01    8.073744e-01
  2.946922e+01    8.010710e-01
  2.958035e+01    7.854914e-01
  2.969148e+01    8.040761e-01
  2.980261e+01    8.013269e-01
  2.991374e+01    7.935479e-01
  3.002487e+01    8.112618e-01
  3.013600e+01    8.064277e-01
  3.024712e+01    7.924505e-01
  3.035825e+01    7.951009e-01
  3.046938e+01    7.833824e-01
  3.058051e+01    7.827407e-01
  3.069164e+01    7.760673e-01
  3.080277e+01    7.885839e-01
  3.091390e+01    7.813860e-01
  3.102503e+01    7.956719e-01
  3.113616e+01    8.001688e-01
  3.124729e+01    8.169085e-01
  3.135841e+01    8.088121e-01
  3.146954e+01    7.963343e-01
  3.158067e+01    8.683304e-01
  3.169180e+01    1.008210e+00
  3.180293e+01    1.469866e+00
  3.191406e+01    2.097291e+00
  3.202519e+01    1.305592e+00
  3.213632e+01    9.509134e-01
  3.224745e+01    8.062171e-01
  3.235858e+01    8.241289e-01
  3.246970e+01    7.977678e-01
  3.254908e+01    7.740630e-01