File: XRD/Reaction conditions/2024-07-27_003_Ru-CGO-ex_Reaction_dwell_000023_data_000017.dat
# == pyFAI calibration ==
# Distance Sample to Detector: 0.4 m
# PONI: 9.750e-02, 1.135e-01 m
# Rotations: -0.000175 0.000000 -0.000000 rad
#
# == Fit2d calibration ==
# Distance Sample-beamCenter: 400.000 mm
# Center: x=1514.000, y=1300.000 pix
# Tilt: 0.010 deg  TiltPlanRot: 0.010 deg
#
# Detector Detector	 Spline= None	 PixelSize= 7.500e-05, 7.500e-05 m
#    Detector has a mask: False
#    Detector has a dark current: False
#    detector has a flat field: False
#
# Wavelength: 6.888e-11 m
# Mask applied: user provided
# Dark current applied: False
# Flat field applied: False
# Polarization factor: 0.99
# Normalization factor: 1.0
# --> /home/myspot/data/2024_07_Rosario/Ru-CGO-ex/2024-07-27_003_Ru-CGO-ex_Reaction_dwell_000023_data_000017.dat
#       q_nm^-1             I
  2.003187e-02    7.711873e-02
  1.311609e-01    6.056806e-02
  2.422899e-01    2.724900e-02
  3.534189e-01    9.189573e-02
  4.645479e-01    3.416292e-02
  5.756770e-01    7.632713e-02
  6.868060e-01    5.269549e-02
  7.979350e-01    1.699140e-01
  9.090640e-01    7.031851e-01
  1.020193e+00    1.285930e+00
  1.131322e+00    1.561616e+00
  1.242451e+00    2.422873e+00
  1.353580e+00    2.966222e+00
  1.464709e+00    3.008715e+00
  1.575838e+00    3.195653e+00
  1.686967e+00    3.149951e+00
  1.798096e+00    3.163444e+00
  1.909225e+00    3.152910e+00
  2.020354e+00    3.095109e+00
  2.131483e+00    3.247088e+00
  2.242612e+00    3.143850e+00
  2.353741e+00    3.230535e+00
  2.464870e+00    3.152833e+00
  2.575999e+00    3.229940e+00
  2.687128e+00    3.334420e+00
  2.798257e+00    3.344596e+00
  2.909386e+00    3.342746e+00
  3.020515e+00    3.350690e+00
  3.131644e+00    3.418134e+00
  3.242773e+00    3.466953e+00
  3.353902e+00    3.427003e+00
  3.465031e+00    3.429776e+00
  3.576160e+00    3.494502e+00
  3.687289e+00    3.552413e+00
  3.798418e+00    3.551264e+00
  3.909547e+00    3.594389e+00
  4.020676e+00    3.507927e+00
  4.131806e+00    3.602453e+00
  4.242935e+00    3.603901e+00
  4.354064e+00    3.687343e+00
  4.465193e+00    3.583997e+00
  4.576322e+00    3.728868e+00
  4.687451e+00    3.613199e+00
  4.798580e+00    3.660367e+00
  4.909709e+00    3.801356e+00
  5.020838e+00    3.716279e+00
  5.131967e+00    3.839855e+00
  5.243096e+00    3.724544e+00
  5.354225e+00    3.668042e+00
  5.465354e+00    3.651042e+00
  5.576483e+00    3.678310e+00
  5.687612e+00    3.667225e+00
  5.798741e+00    3.588737e+00
  5.909870e+00    3.525054e+00
  6.020999e+00    3.577570e+00
  6.132128e+00    3.611332e+00
  6.243257e+00    3.692303e+00
  6.354386e+00    3.587692e+00
  6.465515e+00    3.509880e+00
  6.576644e+00    3.572090e+00
  6.687773e+00    3.544833e+00
  6.798902e+00    3.513069e+00
  6.910031e+00    3.569923e+00
  7.021160e+00    3.572405e+00
  7.132289e+00    3.639056e+00
  7.243418e+00    3.523303e+00
  7.354547e+00    3.564831e+00
  7.465676e+00    3.468742e+00
  7.576805e+00    3.503553e+00
  7.687934e+00    3.432203e+00
  7.799063e+00    3.490698e+00
  7.910192e+00    3.473192e+00
  8.021321e+00    3.403645e+00
  8.132450e+00    3.457397e+00
  8.243579e+00    3.485863e+00
  8.354708e+00    3.438306e+00
  8.465837e+00    3.406151e+00
  8.576966e+00    3.406793e+00
  8.688095e+00    3.362798e+00
  8.799224e+00    3.280394e+00
  8.910353e+00    3.325354e+00
  9.021482e+00    3.326751e+00
  9.132611e+00    3.304184e+00
  9.243740e+00    3.327312e+00
  9.354869e+00    3.229595e+00
  9.465998e+00    3.184321e+00
  9.577127e+00    3.249913e+00
  9.688256e+00    3.191892e+00
  9.799385e+00    3.215884e+00
  9.910514e+00    3.159457e+00
  1.002164e+01    3.108258e+00
  1.013277e+01    3.098612e+00
  1.024390e+01    3.067041e+00
  1.035503e+01    3.043813e+00
  1.046616e+01    3.038612e+00
  1.057729e+01    2.994183e+00
  1.068842e+01    3.063398e+00
  1.079955e+01    3.004697e+00
  1.091068e+01    2.979305e+00
  1.102180e+01    2.918316e+00
  1.113293e+01    2.955760e+00
  1.124406e+01    2.882333e+00
  1.135519e+01    2.832266e+00
  1.146632e+01    2.813707e+00
  1.157745e+01    2.852814e+00
  1.168858e+01    2.767325e+00
  1.179971e+01    2.782697e+00
  1.191084e+01    2.752820e+00
  1.202197e+01    2.756151e+00
  1.213309e+01    2.712227e+00
  1.224422e+01    2.727630e+00
  1.235535e+01    2.697317e+00
  1.246648e+01    2.701049e+00
  1.257761e+01    2.805927e+00
  1.268874e+01    2.889713e+00
  1.279987e+01    3.054886e+00
  1.291100e+01    3.727967e+00
  1.302213e+01    6.813809e+00
  1.313326e+01    1.504159e+01
  1.324438e+01    1.073498e+01
  1.335551e+01    4.481035e+00
  1.346664e+01    3.153165e+00
  1.357777e+01    2.795976e+00
  1.368890e+01    2.589236e+00
  1.380003e+01    2.516635e+00
  1.391116e+01    2.430276e+00
  1.402229e+01    2.383590e+00
  1.413342e+01    2.335779e+00
  1.424455e+01    2.299521e+00
  1.435568e+01    2.252157e+00
  1.446680e+01    2.259684e+00
  1.457793e+01    2.231838e+00
  1.468906e+01    2.235737e+00
  1.480019e+01    2.218337e+00
  1.491132e+01    2.246168e+00
  1.502245e+01    2.547338e+00
  1.513358e+01    3.834462e+00
  1.524471e+01    5.791411e+00
  1.535584e+01    3.774260e+00
  1.546697e+01    2.472568e+00
  1.557809e+01    2.126512e+00
  1.568922e+01    2.038455e+00
  1.580035e+01    1.949770e+00
  1.591148e+01    1.901508e+00
  1.602261e+01    1.879875e+00
  1.613374e+01    1.843321e+00
  1.624487e+01    1.816356e+00
  1.635600e+01    1.824774e+00
  1.646713e+01    1.762659e+00
  1.657826e+01    1.754398e+00
  1.668938e+01    1.704784e+00
  1.680051e+01    1.692309e+00
  1.691164e+01    1.690184e+00
  1.702277e+01    1.655000e+00
  1.713390e+01    1.630634e+00
  1.724503e+01    1.629048e+00
  1.735616e+01    1.597115e+00
  1.746729e+01    1.610746e+00
  1.757842e+01    1.607950e+00
  1.768955e+01    1.593584e+00
  1.780067e+01    1.573476e+00
  1.791180e+01    1.568029e+00
  1.802293e+01    1.515453e+00
  1.813406e+01    1.480472e+00
  1.824519e+01    1.493201e+00
  1.835632e+01    1.466488e+00
  1.846745e+01    1.482031e+00
  1.857858e+01    1.456006e+00
  1.868971e+01    1.463336e+00
  1.880084e+01    1.419068e+00
  1.891196e+01    1.397389e+00
  1.902309e+01    1.399166e+00
  1.913422e+01    1.382893e+00
  1.924535e+01    1.376827e+00
  1.935648e+01    1.365479e+00
  1.946761e+01    1.341645e+00
  1.957874e+01    1.330044e+00
  1.968987e+01    1.314625e+00
  1.980100e+01    1.310035e+00
  1.991213e+01    1.307280e+00
  2.002325e+01    1.303122e+00
  2.013438e+01    1.305372e+00
  2.024551e+01    1.271839e+00
  2.035664e+01    1.241891e+00
  2.046777e+01    1.261555e+00
  2.057890e+01    1.256980e+00
  2.069003e+01    1.237016e+00
  2.080116e+01    1.199782e+00
  2.091229e+01    1.232456e+00
  2.102342e+01    1.239194e+00
  2.113455e+01    1.234231e+00
  2.124567e+01    1.239414e+00
  2.135680e+01    1.310954e+00
  2.146793e+01    1.413602e+00
  2.157906e+01    1.622483e+00
  2.169019e+01    2.513088e+00
  2.180132e+01    5.871823e+00
  2.191245e+01    8.784140e+00
  2.202358e+01    3.653931e+00
  2.213471e+01    1.841355e+00
  2.224584e+01    1.414076e+00
  2.235696e+01    1.252548e+00
  2.246809e+01    1.145837e+00
  2.257922e+01    1.124640e+00
  2.269035e+01    1.104061e+00
  2.280148e+01    1.035506e+00
  2.291261e+01    1.050700e+00
  2.302374e+01    1.028536e+00
  2.313487e+01    1.002923e+00
  2.324600e+01    1.005670e+00
  2.335713e+01    9.918337e-01
  2.346825e+01    9.657913e-01
  2.357938e+01    9.864402e-01
  2.369051e+01    9.545079e-01
  2.380164e+01    9.172167e-01
  2.391277e+01    9.256253e-01
  2.402390e+01    8.848125e-01
  2.413503e+01    8.831232e-01
  2.424616e+01    8.941135e-01
  2.435729e+01    8.970526e-01
  2.446842e+01    9.226817e-01
  2.457954e+01    9.036533e-01
  2.469067e+01    8.833693e-01
  2.480180e+01    9.033967e-01
  2.491293e+01    8.976026e-01
  2.502406e+01    8.954665e-01
  2.513519e+01    9.396226e-01
  2.524632e+01    9.707584e-01
  2.535745e+01    9.751471e-01
  2.546858e+01    1.027205e+00
  2.557971e+01    1.172587e+00
  2.569083e+01    1.499181e+00
  2.580196e+01    2.852742e+00
  2.591309e+01    6.392961e+00
  2.602422e+01    5.260366e+00
  2.613535e+01    2.158857e+00
  2.624648e+01    1.382076e+00
  2.635761e+01    1.104234e+00
  2.646874e+01    1.038171e+00
  2.657987e+01    9.987458e-01
  2.669100e+01    9.464588e-01
  2.680212e+01    1.007539e+00
  2.691325e+01    1.019929e+00
  2.702438e+01    1.193137e+00
  2.713551e+01    1.736518e+00
  2.724664e+01    2.109729e+00
  2.735777e+01    1.277389e+00
  2.746890e+01    1.032589e+00
  2.758003e+01    9.281774e-01
  2.769116e+01    9.161587e-01
  2.780229e+01    8.776123e-01
  2.791342e+01    8.870268e-01
  2.802454e+01    8.622176e-01
  2.813567e+01    8.701382e-01
  2.824680e+01    8.484375e-01
  2.835793e+01    8.472871e-01
  2.846906e+01    8.522744e-01
  2.858019e+01    8.516116e-01
  2.869132e+01    8.429444e-01
  2.880245e+01    8.257727e-01
  2.891358e+01    8.198785e-01
  2.902471e+01    8.198654e-01
  2.913583e+01    8.556060e-01
  2.924696e+01    8.054254e-01
  2.935809e+01    8.231949e-01
  2.946922e+01    7.934798e-01
  2.958035e+01    8.126533e-01
  2.969148e+01    8.108717e-01
  2.980261e+01    8.103857e-01
  2.991374e+01    7.897229e-01
  3.002487e+01    8.144954e-01
  3.013600e+01    8.193807e-01
  3.024712e+01    7.821072e-01
  3.035825e+01    7.799152e-01
  3.046938e+01    7.747456e-01
  3.058051e+01    7.714331e-01
  3.069164e+01    8.025112e-01
  3.080277e+01    7.785724e-01
  3.091390e+01    7.986068e-01
  3.102503e+01    8.110073e-01
  3.113616e+01    8.024044e-01
  3.124729e+01    8.068125e-01
  3.135841e+01    8.225801e-01
  3.146954e+01    8.246399e-01
  3.158067e+01    8.640588e-01
  3.169180e+01    9.904680e-01
  3.180293e+01    1.490793e+00
  3.191406e+01    2.082886e+00
  3.202519e+01    1.347306e+00
  3.213632e+01    9.851247e-01
  3.224745e+01    8.556581e-01
  3.235858e+01    8.083525e-01
  3.246970e+01    7.835749e-01
  3.254908e+01    7.894642e-01