File: XRD/Reaction conditions/2024-07-27_003_Ru-CGO-ex_Reaction_dwell_000023_data_000121.dat
# == pyFAI calibration ==
# Distance Sample to Detector: 0.4 m
# PONI: 9.750e-02, 1.135e-01 m
# Rotations: -0.000175 0.000000 -0.000000 rad
#
# == Fit2d calibration ==
# Distance Sample-beamCenter: 400.000 mm
# Center: x=1514.000, y=1300.000 pix
# Tilt: 0.010 deg  TiltPlanRot: 0.010 deg
#
# Detector Detector	 Spline= None	 PixelSize= 7.500e-05, 7.500e-05 m
#    Detector has a mask: False
#    Detector has a dark current: False
#    detector has a flat field: False
#
# Wavelength: 6.888e-11 m
# Mask applied: user provided
# Dark current applied: False
# Flat field applied: False
# Polarization factor: 0.99
# Normalization factor: 1.0
# --> /home/myspot/data/2024_07_Rosario/Ru-CGO-ex/2024-07-27_003_Ru-CGO-ex_Reaction_dwell_000023_data_000121.dat
#       q_nm^-1             I
  2.003187e-02    0.000000e+00
  1.311609e-01    4.536876e-02
  2.422899e-01    5.106962e-02
  3.534189e-01    2.424020e-02
  4.645479e-01    1.612840e-02
  5.756770e-01    1.489183e-02
  6.868060e-01    5.006801e-02
  7.979350e-01    1.823094e-01
  9.090640e-01    6.379209e-01
  1.020193e+00    1.306261e+00
  1.131322e+00    1.605764e+00
  1.242451e+00    2.302936e+00
  1.353580e+00    2.819666e+00
  1.464709e+00    3.060548e+00
  1.575838e+00    3.233862e+00
  1.686967e+00    3.193025e+00
  1.798096e+00    3.093163e+00
  1.909225e+00    3.054923e+00
  2.020354e+00    3.079591e+00
  2.131483e+00    3.130064e+00
  2.242612e+00    3.045956e+00
  2.353741e+00    3.203529e+00
  2.464870e+00    3.252585e+00
  2.575999e+00    3.201625e+00
  2.687128e+00    3.201149e+00
  2.798257e+00    3.256853e+00
  2.909386e+00    3.346828e+00
  3.020515e+00    3.337027e+00
  3.131644e+00    3.310901e+00
  3.242773e+00    3.374364e+00
  3.353902e+00    3.342858e+00
  3.465031e+00    3.400250e+00
  3.576160e+00    3.415332e+00
  3.687289e+00    3.451014e+00
  3.798418e+00    3.417723e+00
  3.909547e+00    3.509195e+00
  4.020676e+00    3.461590e+00
  4.131806e+00    3.613911e+00
  4.242935e+00    3.564565e+00
  4.354064e+00    3.542166e+00
  4.465193e+00    3.432703e+00
  4.576322e+00    3.617415e+00
  4.687451e+00    3.619904e+00
  4.798580e+00    3.623270e+00
  4.909709e+00    3.610335e+00
  5.020838e+00    3.705088e+00
  5.131967e+00    3.683209e+00
  5.243096e+00    3.654384e+00
  5.354225e+00    3.606144e+00
  5.465354e+00    3.626173e+00
  5.576483e+00    3.532732e+00
  5.687612e+00    3.643739e+00
  5.798741e+00    3.542501e+00
  5.909870e+00    3.517034e+00
  6.020999e+00    3.503283e+00
  6.132128e+00    3.596293e+00
  6.243257e+00    3.545279e+00
  6.354386e+00    3.514702e+00
  6.465515e+00    3.541350e+00
  6.576644e+00    3.600083e+00
  6.687773e+00    3.566548e+00
  6.798902e+00    3.613919e+00
  6.910031e+00    3.566160e+00
  7.021160e+00    3.515289e+00
  7.132289e+00    3.451810e+00
  7.243418e+00    3.431539e+00
  7.354547e+00    3.511989e+00
  7.465676e+00    3.538339e+00
  7.576805e+00    3.462896e+00
  7.687934e+00    3.399766e+00
  7.799063e+00    3.435044e+00
  7.910192e+00    3.351074e+00
  8.021321e+00    3.439734e+00
  8.132450e+00    3.425011e+00
  8.243579e+00    3.470416e+00
  8.354708e+00    3.414707e+00
  8.465837e+00    3.322621e+00
  8.576966e+00    3.375975e+00
  8.688095e+00    3.291124e+00
  8.799224e+00    3.294960e+00
  8.910353e+00    3.351707e+00
  9.021482e+00    3.269276e+00
  9.132611e+00    3.202001e+00
  9.243740e+00    3.194559e+00
  9.354869e+00    3.223596e+00
  9.465998e+00    3.207519e+00
  9.577127e+00    3.242022e+00
  9.688256e+00    3.134262e+00
  9.799385e+00    3.152190e+00
  9.910514e+00    3.136033e+00
  1.002164e+01    3.144377e+00
  1.013277e+01    3.111484e+00
  1.024390e+01    3.034024e+00
  1.035503e+01    3.113153e+00
  1.046616e+01    3.068355e+00
  1.057729e+01    3.024274e+00
  1.068842e+01    2.909286e+00
  1.079955e+01    2.982976e+00
  1.091068e+01    2.897635e+00
  1.102180e+01    2.873134e+00
  1.113293e+01    2.896244e+00
  1.124406e+01    2.914953e+00
  1.135519e+01    2.817477e+00
  1.146632e+01    2.761354e+00
  1.157745e+01    2.783120e+00
  1.168858e+01    2.742214e+00
  1.179971e+01    2.786016e+00
  1.191084e+01    2.711294e+00
  1.202197e+01    2.676604e+00
  1.213309e+01    2.679202e+00
  1.224422e+01    2.748490e+00
  1.235535e+01    2.696234e+00
  1.246648e+01    2.693504e+00
  1.257761e+01    2.729350e+00
  1.268874e+01    2.819751e+00
  1.279987e+01    2.986095e+00
  1.291100e+01    3.632530e+00
  1.302213e+01    6.659852e+00
  1.313326e+01    1.486907e+01
  1.324438e+01    1.072360e+01
  1.335551e+01    4.426586e+00
  1.346664e+01    3.140543e+00
  1.357777e+01    2.763229e+00
  1.368890e+01    2.565911e+00
  1.380003e+01    2.507928e+00
  1.391116e+01    2.414349e+00
  1.402229e+01    2.355088e+00
  1.413342e+01    2.328692e+00
  1.424455e+01    2.289886e+00
  1.435568e+01    2.275554e+00
  1.446680e+01    2.200302e+00
  1.457793e+01    2.216025e+00
  1.468906e+01    2.180331e+00
  1.480019e+01    2.189777e+00
  1.491132e+01    2.259001e+00
  1.502245e+01    2.503302e+00
  1.513358e+01    3.819686e+00
  1.524471e+01    5.720423e+00
  1.535584e+01    3.789251e+00
  1.546697e+01    2.434361e+00
  1.557809e+01    2.111779e+00
  1.568922e+01    1.997532e+00
  1.580035e+01    1.948085e+00
  1.591148e+01    1.900051e+00
  1.602261e+01    1.860819e+00
  1.613374e+01    1.825706e+00
  1.624487e+01    1.825938e+00
  1.635600e+01    1.819452e+00
  1.646713e+01    1.765990e+00
  1.657826e+01    1.754573e+00
  1.668938e+01    1.695681e+00
  1.680051e+01    1.724547e+00
  1.691164e+01    1.672489e+00
  1.702277e+01    1.661945e+00
  1.713390e+01    1.652998e+00
  1.724503e+01    1.608915e+00
  1.735616e+01    1.624512e+00
  1.746729e+01    1.578584e+00
  1.757842e+01    1.555018e+00
  1.768955e+01    1.557450e+00
  1.780067e+01    1.537915e+00
  1.791180e+01    1.519190e+00
  1.802293e+01    1.514930e+00
  1.813406e+01    1.496008e+00
  1.824519e+01    1.479988e+00
  1.835632e+01    1.447559e+00
  1.846745e+01    1.455388e+00
  1.857858e+01    1.469743e+00
  1.868971e+01    1.422273e+00
  1.880084e+01    1.397464e+00
  1.891196e+01    1.395791e+00
  1.902309e+01    1.414107e+00
  1.913422e+01    1.346047e+00
  1.924535e+01    1.346422e+00
  1.935648e+01    1.351733e+00
  1.946761e+01    1.327480e+00
  1.957874e+01    1.336712e+00
  1.968987e+01    1.301275e+00
  1.980100e+01    1.339595e+00
  1.991213e+01    1.272479e+00
  2.002325e+01    1.272795e+00
  2.013438e+01    1.281134e+00
  2.024551e+01    1.237455e+00
  2.035664e+01    1.248356e+00
  2.046777e+01    1.235371e+00
  2.057890e+01    1.253651e+00
  2.069003e+01    1.230420e+00
  2.080116e+01    1.227738e+00
  2.091229e+01    1.217362e+00
  2.102342e+01    1.203436e+00
  2.113455e+01    1.239294e+00
  2.124567e+01    1.256135e+00
  2.135680e+01    1.290613e+00
  2.146793e+01    1.372720e+00
  2.157906e+01    1.613279e+00
  2.169019e+01    2.514229e+00
  2.180132e+01    5.913182e+00
  2.191245e+01    8.840622e+00
  2.202358e+01    3.632599e+00
  2.213471e+01    1.861939e+00
  2.224584e+01    1.428285e+00
  2.235696e+01    1.234133e+00
  2.246809e+01    1.153203e+00
  2.257922e+01    1.103323e+00
  2.269035e+01    1.123472e+00
  2.280148e+01    1.051848e+00
  2.291261e+01    1.024553e+00
  2.302374e+01    1.017455e+00
  2.313487e+01    1.003216e+00
  2.324600e+01    9.984944e-01
  2.335713e+01    9.928560e-01
  2.346825e+01    9.688092e-01
  2.357938e+01    9.836872e-01
  2.369051e+01    9.241054e-01
  2.380164e+01    9.511656e-01
  2.391277e+01    9.016499e-01
  2.402390e+01    8.948630e-01
  2.413503e+01    8.831035e-01
  2.424616e+01    8.596021e-01
  2.435729e+01    8.906484e-01
  2.446842e+01    9.023211e-01
  2.457954e+01    8.818873e-01
  2.469067e+01    8.956540e-01
  2.480180e+01    9.102755e-01
  2.491293e+01    8.752231e-01
  2.502406e+01    8.897251e-01
  2.513519e+01    9.086404e-01
  2.524632e+01    9.469445e-01
  2.535745e+01    9.793252e-01
  2.546858e+01    1.023006e+00
  2.557971e+01    1.166818e+00
  2.569083e+01    1.519484e+00
  2.580196e+01    2.793018e+00
  2.591309e+01    6.333254e+00
  2.602422e+01    5.302058e+00
  2.613535e+01    2.117963e+00
  2.624648e+01    1.335780e+00
  2.635761e+01    1.107288e+00
  2.646874e+01    1.033936e+00
  2.657987e+01    9.922220e-01
  2.669100e+01    9.735395e-01
  2.680212e+01    9.834997e-01
  2.691325e+01    1.013329e+00
  2.702438e+01    1.151577e+00
  2.713551e+01    1.716054e+00
  2.724664e+01    2.088221e+00
  2.735777e+01    1.295199e+00
  2.746890e+01    1.024829e+00
  2.758003e+01    9.399199e-01
  2.769116e+01    9.142044e-01
  2.780229e+01    8.881180e-01
  2.791342e+01    8.742345e-01
  2.802454e+01    8.723052e-01
  2.813567e+01    8.414437e-01
  2.824680e+01    8.561013e-01
  2.835793e+01    8.593450e-01
  2.846906e+01    8.509822e-01
  2.858019e+01    8.533475e-01
  2.869132e+01    8.308759e-01
  2.880245e+01    8.130107e-01
  2.891358e+01    8.056903e-01
  2.902471e+01    8.026975e-01
  2.913583e+01    8.153231e-01
  2.924696e+01    8.296893e-01
  2.935809e+01    8.180541e-01
  2.946922e+01    7.986564e-01
  2.958035e+01    7.952927e-01
  2.969148e+01    8.045280e-01
  2.980261e+01    7.879214e-01
  2.991374e+01    7.830126e-01
  3.002487e+01    8.126361e-01
  3.013600e+01    8.170381e-01
  3.024712e+01    7.734677e-01
  3.035825e+01    7.878171e-01
  3.046938e+01    7.905787e-01
  3.058051e+01    8.017741e-01
  3.069164e+01    7.900403e-01
  3.080277e+01    7.937337e-01
  3.091390e+01    8.071973e-01
  3.102503e+01    7.533883e-01
  3.113616e+01    8.005522e-01
  3.124729e+01    7.936223e-01
  3.135841e+01    7.992834e-01
  3.146954e+01    8.136550e-01
  3.158067e+01    8.636422e-01
  3.169180e+01    9.959841e-01
  3.180293e+01    1.439270e+00
  3.191406e+01    2.109206e+00
  3.202519e+01    1.330126e+00
  3.213632e+01    9.188056e-01
  3.224745e+01    8.249198e-01
  3.235858e+01    7.971181e-01
  3.246970e+01    7.985263e-01
  3.254908e+01    7.673893e-01