File: XRD/Reaction conditions/2024-07-27_003_Ru-CGO-ex_Reaction_dwell_000023_data_000021.dat
# == pyFAI calibration ==
# Distance Sample to Detector: 0.4 m
# PONI: 9.750e-02, 1.135e-01 m
# Rotations: -0.000175 0.000000 -0.000000 rad
#
# == Fit2d calibration ==
# Distance Sample-beamCenter: 400.000 mm
# Center: x=1514.000, y=1300.000 pix
# Tilt: 0.010 deg  TiltPlanRot: 0.010 deg
#
# Detector Detector	 Spline= None	 PixelSize= 7.500e-05, 7.500e-05 m
#    Detector has a mask: False
#    Detector has a dark current: False
#    detector has a flat field: False
#
# Wavelength: 6.888e-11 m
# Mask applied: user provided
# Dark current applied: False
# Flat field applied: False
# Polarization factor: 0.99
# Normalization factor: 1.0
# --> /home/myspot/data/2024_07_Rosario/Ru-CGO-ex/2024-07-27_003_Ru-CGO-ex_Reaction_dwell_000023_data_000021.dat
#       q_nm^-1             I
  2.003187e-02    0.000000e+00
  1.311609e-01    3.550183e-02
  2.422899e-01    1.117665e-02
  3.534189e-01    4.489575e-02
  4.645479e-01    5.027073e-02
  5.756770e-01    8.406387e-02
  6.868060e-01    4.196272e-02
  7.979350e-01    1.451818e-01
  9.090640e-01    6.859257e-01
  1.020193e+00    1.175996e+00
  1.131322e+00    1.596408e+00
  1.242451e+00    2.385133e+00
  1.353580e+00    2.800839e+00
  1.464709e+00    3.009073e+00
  1.575838e+00    3.256073e+00
  1.686967e+00    3.015812e+00
  1.798096e+00    3.018815e+00
  1.909225e+00    3.143671e+00
  2.020354e+00    3.039786e+00
  2.131483e+00    3.014875e+00
  2.242612e+00    3.142903e+00
  2.353741e+00    3.104178e+00
  2.464870e+00    3.187144e+00
  2.575999e+00    3.228217e+00
  2.687128e+00    3.217304e+00
  2.798257e+00    3.308806e+00
  2.909386e+00    3.299597e+00
  3.020515e+00    3.348285e+00
  3.131644e+00    3.329673e+00
  3.242773e+00    3.407599e+00
  3.353902e+00    3.512572e+00
  3.465031e+00    3.486916e+00
  3.576160e+00    3.467354e+00
  3.687289e+00    3.583840e+00
  3.798418e+00    3.511158e+00
  3.909547e+00    3.619965e+00
  4.020676e+00    3.605787e+00
  4.131806e+00    3.609541e+00
  4.242935e+00    3.582468e+00
  4.354064e+00    3.589823e+00
  4.465193e+00    3.710093e+00
  4.576322e+00    3.547843e+00
  4.687451e+00    3.735330e+00
  4.798580e+00    3.715816e+00
  4.909709e+00    3.777246e+00
  5.020838e+00    3.676307e+00
  5.131967e+00    3.697249e+00
  5.243096e+00    3.735001e+00
  5.354225e+00    3.710598e+00
  5.465354e+00    3.543564e+00
  5.576483e+00    3.613820e+00
  5.687612e+00    3.551124e+00
  5.798741e+00    3.603320e+00
  5.909870e+00    3.594220e+00
  6.020999e+00    3.509822e+00
  6.132128e+00    3.569206e+00
  6.243257e+00    3.563433e+00
  6.354386e+00    3.650086e+00
  6.465515e+00    3.516140e+00
  6.576644e+00    3.620779e+00
  6.687773e+00    3.649840e+00
  6.798902e+00    3.653748e+00
  6.910031e+00    3.560409e+00
  7.021160e+00    3.516053e+00
  7.132289e+00    3.545796e+00
  7.243418e+00    3.481972e+00
  7.354547e+00    3.494076e+00
  7.465676e+00    3.515628e+00
  7.576805e+00    3.588492e+00
  7.687934e+00    3.456711e+00
  7.799063e+00    3.449494e+00
  7.910192e+00    3.526208e+00
  8.021321e+00    3.379254e+00
  8.132450e+00    3.535594e+00
  8.243579e+00    3.437150e+00
  8.354708e+00    3.396085e+00
  8.465837e+00    3.389032e+00
  8.576966e+00    3.329583e+00
  8.688095e+00    3.264674e+00
  8.799224e+00    3.385525e+00
  8.910353e+00    3.341357e+00
  9.021482e+00    3.335722e+00
  9.132611e+00    3.260844e+00
  9.243740e+00    3.246643e+00
  9.354869e+00    3.208131e+00
  9.465998e+00    3.207357e+00
  9.577127e+00    3.194390e+00
  9.688256e+00    3.240944e+00
  9.799385e+00    3.227688e+00
  9.910514e+00    3.155428e+00
  1.002164e+01    3.100366e+00
  1.013277e+01    3.112429e+00
  1.024390e+01    3.061533e+00
  1.035503e+01    3.045615e+00
  1.046616e+01    2.994848e+00
  1.057729e+01    3.014180e+00
  1.068842e+01    3.001181e+00
  1.079955e+01    2.940882e+00
  1.091068e+01    2.933918e+00
  1.102180e+01    2.907319e+00
  1.113293e+01    2.894485e+00
  1.124406e+01    2.904823e+00
  1.135519e+01    2.877802e+00
  1.146632e+01    2.844794e+00
  1.157745e+01    2.780605e+00
  1.168858e+01    2.761612e+00
  1.179971e+01    2.769404e+00
  1.191084e+01    2.722389e+00
  1.202197e+01    2.750278e+00
  1.213309e+01    2.711186e+00
  1.224422e+01    2.729245e+00
  1.235535e+01    2.711226e+00
  1.246648e+01    2.728614e+00
  1.257761e+01    2.739266e+00
  1.268874e+01    2.860712e+00
  1.279987e+01    3.061675e+00
  1.291100e+01    3.754431e+00
  1.302213e+01    6.799526e+00
  1.313326e+01    1.500069e+01
  1.324438e+01    1.064524e+01
  1.335551e+01    4.464725e+00
  1.346664e+01    3.095819e+00
  1.357777e+01    2.801077e+00
  1.368890e+01    2.558856e+00
  1.380003e+01    2.419442e+00
  1.391116e+01    2.422369e+00
  1.402229e+01    2.361045e+00
  1.413342e+01    2.313708e+00
  1.424455e+01    2.294669e+00
  1.435568e+01    2.253465e+00
  1.446680e+01    2.233626e+00
  1.457793e+01    2.216740e+00
  1.468906e+01    2.248708e+00
  1.480019e+01    2.208887e+00
  1.491132e+01    2.237431e+00
  1.502245e+01    2.531137e+00
  1.513358e+01    3.859449e+00
  1.524471e+01    5.861300e+00
  1.535584e+01    3.824118e+00
  1.546697e+01    2.427299e+00
  1.557809e+01    2.150914e+00
  1.568922e+01    2.020267e+00
  1.580035e+01    1.962115e+00
  1.591148e+01    1.935471e+00
  1.602261e+01    1.836581e+00
  1.613374e+01    1.851695e+00
  1.624487e+01    1.853104e+00
  1.635600e+01    1.800683e+00
  1.646713e+01    1.794136e+00
  1.657826e+01    1.715049e+00
  1.668938e+01    1.738179e+00
  1.680051e+01    1.724998e+00
  1.691164e+01    1.656061e+00
  1.702277e+01    1.649913e+00
  1.713390e+01    1.632863e+00
  1.724503e+01    1.616961e+00
  1.735616e+01    1.640357e+00
  1.746729e+01    1.595879e+00
  1.757842e+01    1.585880e+00
  1.768955e+01    1.580219e+00
  1.780067e+01    1.525781e+00
  1.791180e+01    1.529776e+00
  1.802293e+01    1.503272e+00
  1.813406e+01    1.518378e+00
  1.824519e+01    1.484830e+00
  1.835632e+01    1.480961e+00
  1.846745e+01    1.441212e+00
  1.857858e+01    1.449797e+00
  1.868971e+01    1.413131e+00
  1.880084e+01    1.396529e+00
  1.891196e+01    1.385838e+00
  1.902309e+01    1.379881e+00
  1.913422e+01    1.384019e+00
  1.924535e+01    1.373082e+00
  1.935648e+01    1.352167e+00
  1.946761e+01    1.321254e+00
  1.957874e+01    1.365404e+00
  1.968987e+01    1.286680e+00
  1.980100e+01    1.359824e+00
  1.991213e+01    1.295011e+00
  2.002325e+01    1.275657e+00
  2.013438e+01    1.278894e+00
  2.024551e+01    1.287083e+00
  2.035664e+01    1.273020e+00
  2.046777e+01    1.250043e+00
  2.057890e+01    1.243516e+00
  2.069003e+01    1.243585e+00
  2.080116e+01    1.213253e+00
  2.091229e+01    1.222620e+00
  2.102342e+01    1.221867e+00
  2.113455e+01    1.241802e+00
  2.124567e+01    1.255734e+00
  2.135680e+01    1.306949e+00
  2.146793e+01    1.375839e+00
  2.157906e+01    1.651464e+00
  2.169019e+01    2.542224e+00
  2.180132e+01    6.006708e+00
  2.191245e+01    8.742161e+00
  2.202358e+01    3.610346e+00
  2.213471e+01    1.856303e+00
  2.224584e+01    1.411698e+00
  2.235696e+01    1.257714e+00
  2.246809e+01    1.157261e+00
  2.257922e+01    1.110744e+00
  2.269035e+01    1.077321e+00
  2.280148e+01    1.071359e+00
  2.291261e+01    1.057731e+00
  2.302374e+01    1.017105e+00
  2.313487e+01    1.035354e+00
  2.324600e+01    9.796730e-01
  2.335713e+01    9.758149e-01
  2.346825e+01    9.832528e-01
  2.357938e+01    9.483501e-01
  2.369051e+01    9.320666e-01
  2.380164e+01    9.133280e-01
  2.391277e+01    9.299077e-01
  2.402390e+01    8.922286e-01
  2.413503e+01    8.895605e-01
  2.424616e+01    8.874193e-01
  2.435729e+01    9.124162e-01
  2.446842e+01    9.106262e-01
  2.457954e+01    8.812915e-01
  2.469067e+01    9.122838e-01
  2.480180e+01    8.971968e-01
  2.491293e+01    8.848137e-01
  2.502406e+01    8.924889e-01
  2.513519e+01    9.195056e-01
  2.524632e+01    9.318748e-01
  2.535745e+01    9.632984e-01
  2.546858e+01    1.045140e+00
  2.557971e+01    1.161934e+00
  2.569083e+01    1.549116e+00
  2.580196e+01    2.895163e+00
  2.591309e+01    6.441349e+00
  2.602422e+01    5.220092e+00
  2.613535e+01    2.124981e+00
  2.624648e+01    1.354200e+00
  2.635761e+01    1.110258e+00
  2.646874e+01    1.019831e+00
  2.657987e+01    9.807969e-01
  2.669100e+01    9.900182e-01
  2.680212e+01    9.859312e-01
  2.691325e+01    1.016198e+00
  2.702438e+01    1.169829e+00
  2.713551e+01    1.771170e+00
  2.724664e+01    2.086226e+00
  2.735777e+01    1.281841e+00
  2.746890e+01    1.001808e+00
  2.758003e+01    9.256635e-01
  2.769116e+01    9.201419e-01
  2.780229e+01    9.015138e-01
  2.791342e+01    8.645079e-01
  2.802454e+01    8.655417e-01
  2.813567e+01    8.698947e-01
  2.824680e+01    8.585604e-01
  2.835793e+01    8.497526e-01
  2.846906e+01    8.425627e-01
  2.858019e+01    8.406693e-01
  2.869132e+01    8.388410e-01
  2.880245e+01    8.086143e-01
  2.891358e+01    8.282493e-01
  2.902471e+01    8.191006e-01
  2.913583e+01    8.209611e-01
  2.924696e+01    8.239179e-01
  2.935809e+01    8.077747e-01
  2.946922e+01    8.135157e-01
  2.958035e+01    8.043664e-01
  2.969148e+01    7.777401e-01
  2.980261e+01    7.994657e-01
  2.991374e+01    7.909247e-01
  3.002487e+01    7.998155e-01
  3.013600e+01    7.892220e-01
  3.024712e+01    7.997497e-01
  3.035825e+01    7.849437e-01
  3.046938e+01    7.702529e-01
  3.058051e+01    7.760507e-01
  3.069164e+01    7.846159e-01
  3.080277e+01    7.582090e-01
  3.091390e+01    7.796969e-01
  3.102503e+01    7.927843e-01
  3.113616e+01    7.868178e-01
  3.124729e+01    7.938004e-01
  3.135841e+01    8.195622e-01
  3.146954e+01    8.149498e-01
  3.158067e+01    8.727388e-01
  3.169180e+01    1.004151e+00
  3.180293e+01    1.474895e+00
  3.191406e+01    2.105758e+00
  3.202519e+01    1.303921e+00
  3.213632e+01    9.238392e-01
  3.224745e+01    8.452460e-01
  3.235858e+01    7.632003e-01
  3.246970e+01    7.790153e-01
  3.254908e+01    7.793288e-01