File: XRD/Reaction conditions/2024-07-27_003_Ru-CGO-ex_Reaction_dwell_000023_data_000171.dat
# == pyFAI calibration ==
# Distance Sample to Detector: 0.4 m
# PONI: 9.750e-02, 1.135e-01 m
# Rotations: -0.000175 0.000000 -0.000000 rad
#
# == Fit2d calibration ==
# Distance Sample-beamCenter: 400.000 mm
# Center: x=1514.000, y=1300.000 pix
# Tilt: 0.010 deg  TiltPlanRot: 0.010 deg
#
# Detector Detector	 Spline= None	 PixelSize= 7.500e-05, 7.500e-05 m
#    Detector has a mask: False
#    Detector has a dark current: False
#    detector has a flat field: False
#
# Wavelength: 6.888e-11 m
# Mask applied: user provided
# Dark current applied: False
# Flat field applied: False
# Polarization factor: 0.99
# Normalization factor: 1.0
# --> /home/myspot/data/2024_07_Rosario/Ru-CGO-ex/2024-07-27_003_Ru-CGO-ex_Reaction_dwell_000023_data_000171.dat
#       q_nm^-1             I
  2.003187e-02    1.424646e-01
  1.311609e-01    6.361058e-02
  2.422899e-01    2.542928e-02
  3.534189e-01    5.801094e-02
  4.645479e-01    6.317138e-02
  5.756770e-01    2.613554e-02
  6.868060e-01    4.827653e-02
  7.979350e-01    1.769904e-01
  9.090640e-01    6.676390e-01
  1.020193e+00    1.234825e+00
  1.131322e+00    1.595959e+00
  1.242451e+00    2.423040e+00
  1.353580e+00    2.870797e+00
  1.464709e+00    3.010732e+00
  1.575838e+00    3.136845e+00
  1.686967e+00    3.049783e+00
  1.798096e+00    3.073745e+00
  1.909225e+00    2.924606e+00
  2.020354e+00    2.885041e+00
  2.131483e+00    3.003592e+00
  2.242612e+00    3.059160e+00
  2.353741e+00    3.138633e+00
  2.464870e+00    3.103955e+00
  2.575999e+00    3.109514e+00
  2.687128e+00    3.127502e+00
  2.798257e+00    3.270552e+00
  2.909386e+00    3.292110e+00
  3.020515e+00    3.206661e+00
  3.131644e+00    3.365315e+00
  3.242773e+00    3.380839e+00
  3.353902e+00    3.386494e+00
  3.465031e+00    3.332163e+00
  3.576160e+00    3.384703e+00
  3.687289e+00    3.442564e+00
  3.798418e+00    3.460756e+00
  3.909547e+00    3.608235e+00
  4.020676e+00    3.466892e+00
  4.131806e+00    3.489441e+00
  4.242935e+00    3.558206e+00
  4.354064e+00    3.468965e+00
  4.465193e+00    3.549133e+00
  4.576322e+00    3.646100e+00
  4.687451e+00    3.494092e+00
  4.798580e+00    3.618238e+00
  4.909709e+00    3.598305e+00
  5.020838e+00    3.620357e+00
  5.131967e+00    3.664413e+00
  5.243096e+00    3.579896e+00
  5.354225e+00    3.637381e+00
  5.465354e+00    3.553290e+00
  5.576483e+00    3.530065e+00
  5.687612e+00    3.523803e+00
  5.798741e+00    3.612522e+00
  5.909870e+00    3.487207e+00
  6.020999e+00    3.397631e+00
  6.132128e+00    3.537537e+00
  6.243257e+00    3.531156e+00
  6.354386e+00    3.425735e+00
  6.465515e+00    3.539886e+00
  6.576644e+00    3.538066e+00
  6.687773e+00    3.460312e+00
  6.798902e+00    3.477449e+00
  6.910031e+00    3.479697e+00
  7.021160e+00    3.470759e+00
  7.132289e+00    3.518765e+00
  7.243418e+00    3.497280e+00
  7.354547e+00    3.467951e+00
  7.465676e+00    3.452591e+00
  7.576805e+00    3.428784e+00
  7.687934e+00    3.429478e+00
  7.799063e+00    3.395108e+00
  7.910192e+00    3.314051e+00
  8.021321e+00    3.373050e+00
  8.132450e+00    3.393059e+00
  8.243579e+00    3.407748e+00
  8.354708e+00    3.396565e+00
  8.465837e+00    3.396950e+00
  8.576966e+00    3.304936e+00
  8.688095e+00    3.336940e+00
  8.799224e+00    3.324161e+00
  8.910353e+00    3.281926e+00
  9.021482e+00    3.283206e+00
  9.132611e+00    3.214726e+00
  9.243740e+00    3.224995e+00
  9.354869e+00    3.248932e+00
  9.465998e+00    3.196215e+00
  9.577127e+00    3.193595e+00
  9.688256e+00    3.104929e+00
  9.799385e+00    3.123546e+00
  9.910514e+00    3.060025e+00
  1.002164e+01    3.090954e+00
  1.013277e+01    3.032808e+00
  1.024390e+01    3.066157e+00
  1.035503e+01    2.993800e+00
  1.046616e+01    2.985560e+00
  1.057729e+01    2.964252e+00
  1.068842e+01    2.910436e+00
  1.079955e+01    2.937033e+00
  1.091068e+01    2.862897e+00
  1.102180e+01    2.888354e+00
  1.113293e+01    2.872710e+00
  1.124406e+01    2.819048e+00
  1.135519e+01    2.769797e+00
  1.146632e+01    2.788009e+00
  1.157745e+01    2.763187e+00
  1.168858e+01    2.747610e+00
  1.179971e+01    2.691223e+00
  1.191084e+01    2.677499e+00
  1.202197e+01    2.677910e+00
  1.213309e+01    2.655636e+00
  1.224422e+01    2.684306e+00
  1.235535e+01    2.677856e+00
  1.246648e+01    2.653254e+00
  1.257761e+01    2.728409e+00
  1.268874e+01    2.774749e+00
  1.279987e+01    2.944152e+00
  1.291100e+01    3.659885e+00
  1.302213e+01    6.598016e+00
  1.313326e+01    1.461793e+01
  1.324438e+01    1.055645e+01
  1.335551e+01    4.391738e+00
  1.346664e+01    3.043218e+00
  1.357777e+01    2.688861e+00
  1.368890e+01    2.563880e+00
  1.380003e+01    2.429042e+00
  1.391116e+01    2.363642e+00
  1.402229e+01    2.280700e+00
  1.413342e+01    2.299789e+00
  1.424455e+01    2.213066e+00
  1.435568e+01    2.237482e+00
  1.446680e+01    2.198264e+00
  1.457793e+01    2.223256e+00
  1.468906e+01    2.182220e+00
  1.480019e+01    2.129110e+00
  1.491132e+01    2.247575e+00
  1.502245e+01    2.512004e+00
  1.513358e+01    3.748726e+00
  1.524471e+01    5.670673e+00
  1.535584e+01    3.703997e+00
  1.546697e+01    2.396607e+00
  1.557809e+01    2.089944e+00
  1.568922e+01    1.957404e+00
  1.580035e+01    1.931214e+00
  1.591148e+01    1.879805e+00
  1.602261e+01    1.875062e+00
  1.613374e+01    1.869864e+00
  1.624487e+01    1.776678e+00
  1.635600e+01    1.771938e+00
  1.646713e+01    1.753359e+00
  1.657826e+01    1.712043e+00
  1.668938e+01    1.714786e+00
  1.680051e+01    1.706616e+00
  1.691164e+01    1.659750e+00
  1.702277e+01    1.668472e+00
  1.713390e+01    1.627018e+00
  1.724503e+01    1.618010e+00
  1.735616e+01    1.558549e+00
  1.746729e+01    1.574495e+00
  1.757842e+01    1.522493e+00
  1.768955e+01    1.544861e+00
  1.780067e+01    1.501276e+00
  1.791180e+01    1.497405e+00
  1.802293e+01    1.467189e+00
  1.813406e+01    1.481505e+00
  1.824519e+01    1.433314e+00
  1.835632e+01    1.449968e+00
  1.846745e+01    1.446970e+00
  1.857858e+01    1.422520e+00
  1.868971e+01    1.425193e+00
  1.880084e+01    1.363201e+00
  1.891196e+01    1.364847e+00
  1.902309e+01    1.328872e+00
  1.913422e+01    1.333219e+00
  1.924535e+01    1.346904e+00
  1.935648e+01    1.316405e+00
  1.946761e+01    1.315848e+00
  1.957874e+01    1.303221e+00
  1.968987e+01    1.302271e+00
  1.980100e+01    1.302199e+00
  1.991213e+01    1.275274e+00
  2.002325e+01    1.269174e+00
  2.013438e+01    1.255322e+00
  2.024551e+01    1.245556e+00
  2.035664e+01    1.237334e+00
  2.046777e+01    1.261891e+00
  2.057890e+01    1.208562e+00
  2.069003e+01    1.236692e+00
  2.080116e+01    1.205382e+00
  2.091229e+01    1.209357e+00
  2.102342e+01    1.182621e+00
  2.113455e+01    1.204392e+00
  2.124567e+01    1.245882e+00
  2.135680e+01    1.277569e+00
  2.146793e+01    1.353928e+00
  2.157906e+01    1.584071e+00
  2.169019e+01    2.513787e+00
  2.180132e+01    5.683175e+00
  2.191245e+01    8.710602e+00
  2.202358e+01    3.598830e+00
  2.213471e+01    1.849440e+00
  2.224584e+01    1.384836e+00
  2.235696e+01    1.220009e+00
  2.246809e+01    1.159661e+00
  2.257922e+01    1.098368e+00
  2.269035e+01    1.077836e+00
  2.280148e+01    1.064269e+00
  2.291261e+01    1.033738e+00
  2.302374e+01    1.023229e+00
  2.313487e+01    9.894609e-01
  2.324600e+01    9.694769e-01
  2.335713e+01    9.820024e-01
  2.346825e+01    9.684992e-01
  2.357938e+01    9.531049e-01
  2.369051e+01    9.089854e-01
  2.380164e+01    9.241744e-01
  2.391277e+01    8.985118e-01
  2.402390e+01    8.920581e-01
  2.413503e+01    8.509713e-01
  2.424616e+01    8.725480e-01
  2.435729e+01    8.682426e-01
  2.446842e+01    8.952823e-01
  2.457954e+01    8.711148e-01
  2.469067e+01    8.965607e-01
  2.480180e+01    8.749610e-01
  2.491293e+01    8.805044e-01
  2.502406e+01    9.021761e-01
  2.513519e+01    8.966954e-01
  2.524632e+01    9.354839e-01
  2.535745e+01    9.588451e-01
  2.546858e+01    1.032231e+00
  2.557971e+01    1.164757e+00
  2.569083e+01    1.503537e+00
  2.580196e+01    2.754108e+00
  2.591309e+01    6.253246e+00
  2.602422e+01    5.242369e+00
  2.613535e+01    2.128597e+00
  2.624648e+01    1.375965e+00
  2.635761e+01    1.079684e+00
  2.646874e+01    9.984910e-01
  2.657987e+01    9.966810e-01
  2.669100e+01    9.612683e-01
  2.680212e+01    9.606059e-01
  2.691325e+01    9.686164e-01
  2.702438e+01    1.143018e+00
  2.713551e+01    1.727827e+00
  2.724664e+01    2.076723e+00
  2.735777e+01    1.291183e+00
  2.746890e+01    1.022886e+00
  2.758003e+01    9.091446e-01
  2.769116e+01    8.839239e-01
  2.780229e+01    8.860046e-01
  2.791342e+01    8.714581e-01
  2.802454e+01    8.732268e-01
  2.813567e+01    8.500121e-01
  2.824680e+01    8.694768e-01
  2.835793e+01    8.546872e-01
  2.846906e+01    8.350365e-01
  2.858019e+01    8.267840e-01
  2.869132e+01    8.234410e-01
  2.880245e+01    8.242255e-01
  2.891358e+01    8.148028e-01
  2.902471e+01    7.920097e-01
  2.913583e+01    8.171828e-01
  2.924696e+01    7.976314e-01
  2.935809e+01    7.912695e-01
  2.946922e+01    7.747350e-01
  2.958035e+01    8.013397e-01
  2.969148e+01    7.767222e-01
  2.980261e+01    7.904205e-01
  2.991374e+01    7.808576e-01
  3.002487e+01    7.845063e-01
  3.013600e+01    7.744386e-01
  3.024712e+01    7.848985e-01
  3.035825e+01    7.782383e-01
  3.046938e+01    7.618402e-01
  3.058051e+01    7.829466e-01
  3.069164e+01    7.581976e-01
  3.080277e+01    7.865003e-01
  3.091390e+01    7.736745e-01
  3.102503e+01    7.735821e-01
  3.113616e+01    7.644377e-01
  3.124729e+01    8.016951e-01
  3.135841e+01    7.915147e-01
  3.146954e+01    8.082954e-01
  3.158067e+01    8.447004e-01
  3.169180e+01    9.612260e-01
  3.180293e+01    1.429052e+00
  3.191406e+01    2.062213e+00
  3.202519e+01    1.280629e+00
  3.213632e+01    9.369733e-01
  3.224745e+01    8.160204e-01
  3.235858e+01    7.945644e-01
  3.246970e+01    7.738281e-01
  3.254908e+01    7.915826e-01