File: XRD/Reaction conditions/2024-07-27_003_Ru-CGO-ex_Reaction_dwell_000023_data_000022.dat
# == pyFAI calibration ==
# Distance Sample to Detector: 0.4 m
# PONI: 9.750e-02, 1.135e-01 m
# Rotations: -0.000175 0.000000 -0.000000 rad
#
# == Fit2d calibration ==
# Distance Sample-beamCenter: 400.000 mm
# Center: x=1514.000, y=1300.000 pix
# Tilt: 0.010 deg  TiltPlanRot: 0.010 deg
#
# Detector Detector	 Spline= None	 PixelSize= 7.500e-05, 7.500e-05 m
#    Detector has a mask: False
#    Detector has a dark current: False
#    detector has a flat field: False
#
# Wavelength: 6.888e-11 m
# Mask applied: user provided
# Dark current applied: False
# Flat field applied: False
# Polarization factor: 0.99
# Normalization factor: 1.0
# --> /home/myspot/data/2024_07_Rosario/Ru-CGO-ex/2024-07-27_003_Ru-CGO-ex_Reaction_dwell_000023_data_000022.dat
#       q_nm^-1             I
  2.003187e-02    0.000000e+00
  1.311609e-01    8.477081e-02
  2.422899e-01    5.658351e-02
  3.534189e-01    3.368486e-02
  4.645479e-01    3.412738e-02
  5.756770e-01    5.754203e-02
  6.868060e-01    4.719073e-02
  7.979350e-01    1.348870e-01
  9.090640e-01    6.474465e-01
  1.020193e+00    1.336312e+00
  1.131322e+00    1.530836e+00
  1.242451e+00    2.346815e+00
  1.353580e+00    2.847471e+00
  1.464709e+00    3.031037e+00
  1.575838e+00    3.261440e+00
  1.686967e+00    3.127770e+00
  1.798096e+00    3.150846e+00
  1.909225e+00    3.053013e+00
  2.020354e+00    3.127903e+00
  2.131483e+00    3.095292e+00
  2.242612e+00    3.253327e+00
  2.353741e+00    3.232940e+00
  2.464870e+00    3.156126e+00
  2.575999e+00    3.295734e+00
  2.687128e+00    3.209193e+00
  2.798257e+00    3.292771e+00
  2.909386e+00    3.357528e+00
  3.020515e+00    3.431706e+00
  3.131644e+00    3.329361e+00
  3.242773e+00    3.483263e+00
  3.353902e+00    3.479404e+00
  3.465031e+00    3.468233e+00
  3.576160e+00    3.477395e+00
  3.687289e+00    3.593430e+00
  3.798418e+00    3.468756e+00
  3.909547e+00    3.582330e+00
  4.020676e+00    3.574535e+00
  4.131806e+00    3.662643e+00
  4.242935e+00    3.577057e+00
  4.354064e+00    3.628522e+00
  4.465193e+00    3.578296e+00
  4.576322e+00    3.581517e+00
  4.687451e+00    3.591520e+00
  4.798580e+00    3.538560e+00
  4.909709e+00    3.716223e+00
  5.020838e+00    3.729721e+00
  5.131967e+00    3.638783e+00
  5.243096e+00    3.649496e+00
  5.354225e+00    3.704695e+00
  5.465354e+00    3.626714e+00
  5.576483e+00    3.596191e+00
  5.687612e+00    3.710894e+00
  5.798741e+00    3.571559e+00
  5.909870e+00    3.565369e+00
  6.020999e+00    3.529074e+00
  6.132128e+00    3.605573e+00
  6.243257e+00    3.583136e+00
  6.354386e+00    3.506356e+00
  6.465515e+00    3.627166e+00
  6.576644e+00    3.593658e+00
  6.687773e+00    3.563318e+00
  6.798902e+00    3.601714e+00
  6.910031e+00    3.536088e+00
  7.021160e+00    3.560120e+00
  7.132289e+00    3.575540e+00
  7.243418e+00    3.540061e+00
  7.354547e+00    3.451998e+00
  7.465676e+00    3.565475e+00
  7.576805e+00    3.452732e+00
  7.687934e+00    3.502695e+00
  7.799063e+00    3.491651e+00
  7.910192e+00    3.328221e+00
  8.021321e+00    3.376551e+00
  8.132450e+00    3.412081e+00
  8.243579e+00    3.465069e+00
  8.354708e+00    3.371501e+00
  8.465837e+00    3.370100e+00
  8.576966e+00    3.358741e+00
  8.688095e+00    3.363516e+00
  8.799224e+00    3.341032e+00
  8.910353e+00    3.364792e+00
  9.021482e+00    3.296535e+00
  9.132611e+00    3.327614e+00
  9.243740e+00    3.212251e+00
  9.354869e+00    3.265193e+00
  9.465998e+00    3.315834e+00
  9.577127e+00    3.214405e+00
  9.688256e+00    3.174211e+00
  9.799385e+00    3.137234e+00
  9.910514e+00    3.223807e+00
  1.002164e+01    3.181522e+00
  1.013277e+01    3.122543e+00
  1.024390e+01    3.047906e+00
  1.035503e+01    3.063046e+00
  1.046616e+01    3.020994e+00
  1.057729e+01    3.001731e+00
  1.068842e+01    2.942141e+00
  1.079955e+01    2.920846e+00
  1.091068e+01    2.934693e+00
  1.102180e+01    2.895262e+00
  1.113293e+01    2.860307e+00
  1.124406e+01    2.854231e+00
  1.135519e+01    2.864828e+00
  1.146632e+01    2.798875e+00
  1.157745e+01    2.787574e+00
  1.168858e+01    2.820455e+00
  1.179971e+01    2.754896e+00
  1.191084e+01    2.773582e+00
  1.202197e+01    2.699837e+00
  1.213309e+01    2.649232e+00
  1.224422e+01    2.697275e+00
  1.235535e+01    2.734225e+00
  1.246648e+01    2.704659e+00
  1.257761e+01    2.727670e+00
  1.268874e+01    2.837420e+00
  1.279987e+01    3.049762e+00
  1.291100e+01    3.716567e+00
  1.302213e+01    6.800651e+00
  1.313326e+01    1.508016e+01
  1.324438e+01    1.071722e+01
  1.335551e+01    4.429023e+00
  1.346664e+01    3.138463e+00
  1.357777e+01    2.770824e+00
  1.368890e+01    2.542583e+00
  1.380003e+01    2.496475e+00
  1.391116e+01    2.410270e+00
  1.402229e+01    2.365878e+00
  1.413342e+01    2.350964e+00
  1.424455e+01    2.318310e+00
  1.435568e+01    2.270461e+00
  1.446680e+01    2.236811e+00
  1.457793e+01    2.190035e+00
  1.468906e+01    2.216215e+00
  1.480019e+01    2.196704e+00
  1.491132e+01    2.297407e+00
  1.502245e+01    2.560696e+00
  1.513358e+01    3.927617e+00
  1.524471e+01    5.817661e+00
  1.535584e+01    3.748799e+00
  1.546697e+01    2.395772e+00
  1.557809e+01    2.171814e+00
  1.568922e+01    2.027909e+00
  1.580035e+01    1.933511e+00
  1.591148e+01    1.899196e+00
  1.602261e+01    1.851544e+00
  1.613374e+01    1.817768e+00
  1.624487e+01    1.866640e+00
  1.635600e+01    1.791445e+00
  1.646713e+01    1.753230e+00
  1.657826e+01    1.746448e+00
  1.668938e+01    1.745915e+00
  1.680051e+01    1.681900e+00
  1.691164e+01    1.666062e+00
  1.702277e+01    1.676624e+00
  1.713390e+01    1.670686e+00
  1.724503e+01    1.646551e+00
  1.735616e+01    1.632901e+00
  1.746729e+01    1.570586e+00
  1.757842e+01    1.590840e+00
  1.768955e+01    1.576606e+00
  1.780067e+01    1.566677e+00
  1.791180e+01    1.504061e+00
  1.802293e+01    1.497301e+00
  1.813406e+01    1.494258e+00
  1.824519e+01    1.457486e+00
  1.835632e+01    1.467427e+00
  1.846745e+01    1.458879e+00
  1.857858e+01    1.451189e+00
  1.868971e+01    1.422082e+00
  1.880084e+01    1.430302e+00
  1.891196e+01    1.383793e+00
  1.902309e+01    1.388182e+00
  1.913422e+01    1.390974e+00
  1.924535e+01    1.336121e+00
  1.935648e+01    1.381800e+00
  1.946761e+01    1.340452e+00
  1.957874e+01    1.324391e+00
  1.968987e+01    1.313405e+00
  1.980100e+01    1.314619e+00
  1.991213e+01    1.291768e+00
  2.002325e+01    1.291057e+00
  2.013438e+01    1.278230e+00
  2.024551e+01    1.294091e+00
  2.035664e+01    1.253985e+00
  2.046777e+01    1.245701e+00
  2.057890e+01    1.235066e+00
  2.069003e+01    1.208501e+00
  2.080116e+01    1.221619e+00
  2.091229e+01    1.239989e+00
  2.102342e+01    1.237976e+00
  2.113455e+01    1.215786e+00
  2.124567e+01    1.253013e+00
  2.135680e+01    1.298248e+00
  2.146793e+01    1.401644e+00
  2.157906e+01    1.603088e+00
  2.169019e+01    2.561631e+00
  2.180132e+01    5.963011e+00
  2.191245e+01    8.842015e+00
  2.202358e+01    3.547624e+00
  2.213471e+01    1.881722e+00
  2.224584e+01    1.404556e+00
  2.235696e+01    1.243451e+00
  2.246809e+01    1.178517e+00
  2.257922e+01    1.118272e+00
  2.269035e+01    1.097860e+00
  2.280148e+01    1.095222e+00
  2.291261e+01    1.051315e+00
  2.302374e+01    1.040028e+00
  2.313487e+01    1.013467e+00
  2.324600e+01    1.012505e+00
  2.335713e+01    9.788899e-01
  2.346825e+01    9.752264e-01
  2.357938e+01    9.722832e-01
  2.369051e+01    9.410063e-01
  2.380164e+01    9.282126e-01
  2.391277e+01    9.253690e-01
  2.402390e+01    8.881137e-01
  2.413503e+01    8.751261e-01
  2.424616e+01    8.962969e-01
  2.435729e+01    9.053383e-01
  2.446842e+01    8.825314e-01
  2.457954e+01    8.812714e-01
  2.469067e+01    8.892611e-01
  2.480180e+01    9.011565e-01
  2.491293e+01    8.856222e-01
  2.502406e+01    9.050027e-01
  2.513519e+01    9.344731e-01
  2.524632e+01    9.382377e-01
  2.535745e+01    1.013523e+00
  2.546858e+01    1.043489e+00
  2.557971e+01    1.170803e+00
  2.569083e+01    1.536584e+00
  2.580196e+01    2.888766e+00
  2.591309e+01    6.540163e+00
  2.602422e+01    5.203299e+00
  2.613535e+01    2.130316e+00
  2.624648e+01    1.366187e+00
  2.635761e+01    1.099315e+00
  2.646874e+01    1.019784e+00
  2.657987e+01    9.923750e-01
  2.669100e+01    9.611511e-01
  2.680212e+01    9.769655e-01
  2.691325e+01    1.022063e+00
  2.702438e+01    1.166823e+00
  2.713551e+01    1.756804e+00
  2.724664e+01    2.108145e+00
  2.735777e+01    1.278792e+00
  2.746890e+01    1.013883e+00
  2.758003e+01    9.421977e-01
  2.769116e+01    9.054565e-01
  2.780229e+01    8.730495e-01
  2.791342e+01    8.926415e-01
  2.802454e+01    8.911929e-01
  2.813567e+01    8.582243e-01
  2.824680e+01    8.868988e-01
  2.835793e+01    8.465391e-01
  2.846906e+01    8.642083e-01
  2.858019e+01    8.338525e-01
  2.869132e+01    8.403456e-01
  2.880245e+01    8.436035e-01
  2.891358e+01    8.317911e-01
  2.902471e+01    8.242275e-01
  2.913583e+01    8.167913e-01
  2.924696e+01    8.189011e-01
  2.935809e+01    7.832580e-01
  2.946922e+01    8.399414e-01
  2.958035e+01    8.153757e-01
  2.969148e+01    7.924612e-01
  2.980261e+01    7.969936e-01
  2.991374e+01    8.304651e-01
  3.002487e+01    8.162964e-01
  3.013600e+01    7.980375e-01
  3.024712e+01    7.706382e-01
  3.035825e+01    7.695620e-01
  3.046938e+01    7.936774e-01
  3.058051e+01    8.045400e-01
  3.069164e+01    7.941515e-01
  3.080277e+01    7.936121e-01
  3.091390e+01    8.121032e-01
  3.102503e+01    7.991707e-01
  3.113616e+01    8.033183e-01
  3.124729e+01    8.065339e-01
  3.135841e+01    8.300693e-01
  3.146954e+01    8.397464e-01
  3.158067e+01    8.585349e-01
  3.169180e+01    1.004964e+00
  3.180293e+01    1.504901e+00
  3.191406e+01    2.076469e+00
  3.202519e+01    1.336626e+00
  3.213632e+01    9.669459e-01
  3.224745e+01    8.409228e-01
  3.235858e+01    8.104625e-01
  3.246970e+01    7.758130e-01
  3.254908e+01    7.666503e-01