File: XRD/Reaction conditions/2024-07-27_003_Ru-CGO-ex_Reaction_dwell_000023_data_000153.dat
# == pyFAI calibration ==
# Distance Sample to Detector: 0.4 m
# PONI: 9.750e-02, 1.135e-01 m
# Rotations: -0.000175 0.000000 -0.000000 rad
#
# == Fit2d calibration ==
# Distance Sample-beamCenter: 400.000 mm
# Center: x=1514.000, y=1300.000 pix
# Tilt: 0.010 deg  TiltPlanRot: 0.010 deg
#
# Detector Detector	 Spline= None	 PixelSize= 7.500e-05, 7.500e-05 m
#    Detector has a mask: False
#    Detector has a dark current: False
#    detector has a flat field: False
#
# Wavelength: 6.888e-11 m
# Mask applied: user provided
# Dark current applied: False
# Flat field applied: False
# Polarization factor: 0.99
# Normalization factor: 1.0
# --> /home/myspot/data/2024_07_Rosario/Ru-CGO-ex/2024-07-27_003_Ru-CGO-ex_Reaction_dwell_000023_data_000153.dat
#       q_nm^-1             I
  2.003187e-02    0.000000e+00
  1.311609e-01    5.634730e-02
  2.422899e-01    3.100658e-02
  3.534189e-01    4.345694e-02
  4.645479e-01    4.226954e-02
  5.756770e-01    3.016299e-02
  6.868060e-01    4.829598e-02
  7.979350e-01    9.724276e-02
  9.090640e-01    6.818961e-01
  1.020193e+00    1.357823e+00
  1.131322e+00    1.568170e+00
  1.242451e+00    2.395123e+00
  1.353580e+00    2.688373e+00
  1.464709e+00    2.977128e+00
  1.575838e+00    3.241358e+00
  1.686967e+00    3.174693e+00
  1.798096e+00    3.065461e+00
  1.909225e+00    3.004380e+00
  2.020354e+00    3.106491e+00
  2.131483e+00    3.097930e+00
  2.242612e+00    3.197355e+00
  2.353741e+00    3.036126e+00
  2.464870e+00    3.139904e+00
  2.575999e+00    3.217718e+00
  2.687128e+00    3.077762e+00
  2.798257e+00    3.226302e+00
  2.909386e+00    3.309820e+00
  3.020515e+00    3.238436e+00
  3.131644e+00    3.422524e+00
  3.242773e+00    3.352739e+00
  3.353902e+00    3.427731e+00
  3.465031e+00    3.465513e+00
  3.576160e+00    3.437072e+00
  3.687289e+00    3.463330e+00
  3.798418e+00    3.502699e+00
  3.909547e+00    3.468621e+00
  4.020676e+00    3.532593e+00
  4.131806e+00    3.472968e+00
  4.242935e+00    3.543335e+00
  4.354064e+00    3.513033e+00
  4.465193e+00    3.625570e+00
  4.576322e+00    3.552735e+00
  4.687451e+00    3.640203e+00
  4.798580e+00    3.607080e+00
  4.909709e+00    3.641113e+00
  5.020838e+00    3.607416e+00
  5.131967e+00    3.607346e+00
  5.243096e+00    3.701584e+00
  5.354225e+00    3.564202e+00
  5.465354e+00    3.611950e+00
  5.576483e+00    3.587467e+00
  5.687612e+00    3.636077e+00
  5.798741e+00    3.556206e+00
  5.909870e+00    3.451452e+00
  6.020999e+00    3.486799e+00
  6.132128e+00    3.644428e+00
  6.243257e+00    3.513490e+00
  6.354386e+00    3.514183e+00
  6.465515e+00    3.530719e+00
  6.576644e+00    3.593705e+00
  6.687773e+00    3.507540e+00
  6.798902e+00    3.540858e+00
  6.910031e+00    3.454138e+00
  7.021160e+00    3.587970e+00
  7.132289e+00    3.503592e+00
  7.243418e+00    3.445611e+00
  7.354547e+00    3.476589e+00
  7.465676e+00    3.553987e+00
  7.576805e+00    3.508605e+00
  7.687934e+00    3.393663e+00
  7.799063e+00    3.470125e+00
  7.910192e+00    3.371118e+00
  8.021321e+00    3.412270e+00
  8.132450e+00    3.460425e+00
  8.243579e+00    3.427991e+00
  8.354708e+00    3.349456e+00
  8.465837e+00    3.380693e+00
  8.576966e+00    3.311794e+00
  8.688095e+00    3.318460e+00
  8.799224e+00    3.327448e+00
  8.910353e+00    3.318769e+00
  9.021482e+00    3.240590e+00
  9.132611e+00    3.313921e+00
  9.243740e+00    3.214016e+00
  9.354869e+00    3.245411e+00
  9.465998e+00    3.231896e+00
  9.577127e+00    3.169527e+00
  9.688256e+00    3.180606e+00
  9.799385e+00    3.215042e+00
  9.910514e+00    3.163002e+00
  1.002164e+01    3.092755e+00
  1.013277e+01    3.037525e+00
  1.024390e+01    3.008840e+00
  1.035503e+01    3.047074e+00
  1.046616e+01    2.959238e+00
  1.057729e+01    3.032905e+00
  1.068842e+01    2.983254e+00
  1.079955e+01    2.878652e+00
  1.091068e+01    2.991040e+00
  1.102180e+01    2.876899e+00
  1.113293e+01    2.826294e+00
  1.124406e+01    2.842046e+00
  1.135519e+01    2.840149e+00
  1.146632e+01    2.816456e+00
  1.157745e+01    2.762490e+00
  1.168858e+01    2.719690e+00
  1.179971e+01    2.740094e+00
  1.191084e+01    2.715677e+00
  1.202197e+01    2.657387e+00
  1.213309e+01    2.631596e+00
  1.224422e+01    2.672262e+00
  1.235535e+01    2.707427e+00
  1.246648e+01    2.653303e+00
  1.257761e+01    2.707863e+00
  1.268874e+01    2.809835e+00
  1.279987e+01    2.987798e+00
  1.291100e+01    3.665174e+00
  1.302213e+01    6.706578e+00
  1.313326e+01    1.468436e+01
  1.324438e+01    1.062236e+01
  1.335551e+01    4.433548e+00
  1.346664e+01    3.156605e+00
  1.357777e+01    2.722624e+00
  1.368890e+01    2.591678e+00
  1.380003e+01    2.475585e+00
  1.391116e+01    2.412719e+00
  1.402229e+01    2.348057e+00
  1.413342e+01    2.366702e+00
  1.424455e+01    2.282856e+00
  1.435568e+01    2.250345e+00
  1.446680e+01    2.220837e+00
  1.457793e+01    2.191494e+00
  1.468906e+01    2.197324e+00
  1.480019e+01    2.218216e+00
  1.491132e+01    2.202203e+00
  1.502245e+01    2.461443e+00
  1.513358e+01    3.788116e+00
  1.524471e+01    5.699841e+00
  1.535584e+01    3.727899e+00
  1.546697e+01    2.440133e+00
  1.557809e+01    2.084846e+00
  1.568922e+01    1.984456e+00
  1.580035e+01    1.968222e+00
  1.591148e+01    1.894582e+00
  1.602261e+01    1.860675e+00
  1.613374e+01    1.885377e+00
  1.624487e+01    1.766981e+00
  1.635600e+01    1.787324e+00
  1.646713e+01    1.764666e+00
  1.657826e+01    1.745436e+00
  1.668938e+01    1.691469e+00
  1.680051e+01    1.692277e+00
  1.691164e+01    1.680197e+00
  1.702277e+01    1.642209e+00
  1.713390e+01    1.668131e+00
  1.724503e+01    1.612543e+00
  1.735616e+01    1.573925e+00
  1.746729e+01    1.596407e+00
  1.757842e+01    1.587942e+00
  1.768955e+01    1.577869e+00
  1.780067e+01    1.547246e+00
  1.791180e+01    1.523883e+00
  1.802293e+01    1.508579e+00
  1.813406e+01    1.517999e+00
  1.824519e+01    1.488820e+00
  1.835632e+01    1.462395e+00
  1.846745e+01    1.453090e+00
  1.857858e+01    1.425748e+00
  1.868971e+01    1.431059e+00
  1.880084e+01    1.397718e+00
  1.891196e+01    1.395334e+00
  1.902309e+01    1.343538e+00
  1.913422e+01    1.397234e+00
  1.924535e+01    1.343118e+00
  1.935648e+01    1.360638e+00
  1.946761e+01    1.312658e+00
  1.957874e+01    1.326410e+00
  1.968987e+01    1.295121e+00
  1.980100e+01    1.280294e+00
  1.991213e+01    1.309599e+00
  2.002325e+01    1.271759e+00
  2.013438e+01    1.240525e+00
  2.024551e+01    1.279610e+00
  2.035664e+01    1.254958e+00
  2.046777e+01    1.257239e+00
  2.057890e+01    1.233846e+00
  2.069003e+01    1.193629e+00
  2.080116e+01    1.227366e+00
  2.091229e+01    1.228181e+00
  2.102342e+01    1.203803e+00
  2.113455e+01    1.235789e+00
  2.124567e+01    1.231489e+00
  2.135680e+01    1.280177e+00
  2.146793e+01    1.378418e+00
  2.157906e+01    1.615786e+00
  2.169019e+01    2.493767e+00
  2.180132e+01    5.845721e+00
  2.191245e+01    8.764330e+00
  2.202358e+01    3.622038e+00
  2.213471e+01    1.854531e+00
  2.224584e+01    1.409259e+00
  2.235696e+01    1.237044e+00
  2.246809e+01    1.150452e+00
  2.257922e+01    1.122514e+00
  2.269035e+01    1.070220e+00
  2.280148e+01    1.074000e+00
  2.291261e+01    1.022744e+00
  2.302374e+01    1.012402e+00
  2.313487e+01    1.000844e+00
  2.324600e+01    9.684591e-01
  2.335713e+01    9.795242e-01
  2.346825e+01    9.594014e-01
  2.357938e+01    9.467976e-01
  2.369051e+01    9.428434e-01
  2.380164e+01    9.214279e-01
  2.391277e+01    9.041787e-01
  2.402390e+01    8.968011e-01
  2.413503e+01    8.785107e-01
  2.424616e+01    8.772900e-01
  2.435729e+01    8.688704e-01
  2.446842e+01    8.873215e-01
  2.457954e+01    8.882374e-01
  2.469067e+01    9.020826e-01
  2.480180e+01    8.980963e-01
  2.491293e+01    9.289286e-01
  2.502406e+01    9.076059e-01
  2.513519e+01    9.057515e-01
  2.524632e+01    9.247089e-01
  2.535745e+01    9.545872e-01
  2.546858e+01    1.027416e+00
  2.557971e+01    1.174170e+00
  2.569083e+01    1.485853e+00
  2.580196e+01    2.804949e+00
  2.591309e+01    6.243994e+00
  2.602422e+01    5.312028e+00
  2.613535e+01    2.148018e+00
  2.624648e+01    1.349403e+00
  2.635761e+01    1.126524e+00
  2.646874e+01    1.028912e+00
  2.657987e+01    9.550635e-01
  2.669100e+01    9.618132e-01
  2.680212e+01    9.621184e-01
  2.691325e+01    1.018675e+00
  2.702438e+01    1.151352e+00
  2.713551e+01    1.726158e+00
  2.724664e+01    2.056561e+00
  2.735777e+01    1.285902e+00
  2.746890e+01    1.004381e+00
  2.758003e+01    9.320173e-01
  2.769116e+01    9.159694e-01
  2.780229e+01    8.792373e-01
  2.791342e+01    8.616433e-01
  2.802454e+01    8.484097e-01
  2.813567e+01    8.638548e-01
  2.824680e+01    8.391533e-01
  2.835793e+01    8.445997e-01
  2.846906e+01    8.564592e-01
  2.858019e+01    8.169433e-01
  2.869132e+01    7.976145e-01
  2.880245e+01    8.150292e-01
  2.891358e+01    8.140739e-01
  2.902471e+01    8.261855e-01
  2.913583e+01    7.847095e-01
  2.924696e+01    8.065119e-01
  2.935809e+01    8.108714e-01
  2.946922e+01    8.028218e-01
  2.958035e+01    8.062283e-01
  2.969148e+01    8.194823e-01
  2.980261e+01    7.920468e-01
  2.991374e+01    8.185077e-01
  3.002487e+01    7.885759e-01
  3.013600e+01    7.875046e-01
  3.024712e+01    7.820340e-01
  3.035825e+01    7.828773e-01
  3.046938e+01    7.767162e-01
  3.058051e+01    7.760533e-01
  3.069164e+01    7.793840e-01
  3.080277e+01    7.933679e-01
  3.091390e+01    7.948168e-01
  3.102503e+01    8.099294e-01
  3.113616e+01    7.747713e-01
  3.124729e+01    7.936987e-01
  3.135841e+01    8.203212e-01
  3.146954e+01    8.296810e-01
  3.158067e+01    8.665602e-01
  3.169180e+01    9.914756e-01
  3.180293e+01    1.436883e+00
  3.191406e+01    2.129196e+00
  3.202519e+01    1.340988e+00
  3.213632e+01    9.453281e-01
  3.224745e+01    8.236106e-01
  3.235858e+01    8.055364e-01
  3.246970e+01    7.910468e-01
  3.254908e+01    7.601428e-01