File: XRD/Reaction conditions/2024-07-27_003_Ru-CGO-ex_Reaction_dwell_000023_data_000029.dat
# == pyFAI calibration ==
# Distance Sample to Detector: 0.4 m
# PONI: 9.750e-02, 1.135e-01 m
# Rotations: -0.000175 0.000000 -0.000000 rad
#
# == Fit2d calibration ==
# Distance Sample-beamCenter: 400.000 mm
# Center: x=1514.000, y=1300.000 pix
# Tilt: 0.010 deg  TiltPlanRot: 0.010 deg
#
# Detector Detector	 Spline= None	 PixelSize= 7.500e-05, 7.500e-05 m
#    Detector has a mask: False
#    Detector has a dark current: False
#    detector has a flat field: False
#
# Wavelength: 6.888e-11 m
# Mask applied: user provided
# Dark current applied: False
# Flat field applied: False
# Polarization factor: 0.99
# Normalization factor: 1.0
# --> /home/myspot/data/2024_07_Rosario/Ru-CGO-ex/2024-07-27_003_Ru-CGO-ex_Reaction_dwell_000023_data_000029.dat
#       q_nm^-1             I
  2.003187e-02    0.000000e+00
  1.311609e-01    3.206104e-02
  2.422899e-01    9.744860e-02
  3.534189e-01    5.220026e-02
  4.645479e-01    4.591545e-02
  5.756770e-01    1.420166e-02
  6.868060e-01    3.642951e-02
  7.979350e-01    1.920386e-01
  9.090640e-01    5.834662e-01
  1.020193e+00    1.259109e+00
  1.131322e+00    1.661262e+00
  1.242451e+00    2.442725e+00
  1.353580e+00    2.709868e+00
  1.464709e+00    2.949533e+00
  1.575838e+00    3.201615e+00
  1.686967e+00    3.034214e+00
  1.798096e+00    3.092391e+00
  1.909225e+00    3.146775e+00
  2.020354e+00    3.184083e+00
  2.131483e+00    3.036863e+00
  2.242612e+00    3.228858e+00
  2.353741e+00    3.162520e+00
  2.464870e+00    3.156661e+00
  2.575999e+00    3.182725e+00
  2.687128e+00    3.241737e+00
  2.798257e+00    3.235543e+00
  2.909386e+00    3.346220e+00
  3.020515e+00    3.339443e+00
  3.131644e+00    3.450738e+00
  3.242773e+00    3.439719e+00
  3.353902e+00    3.435456e+00
  3.465031e+00    3.460878e+00
  3.576160e+00    3.517699e+00
  3.687289e+00    3.489408e+00
  3.798418e+00    3.618428e+00
  3.909547e+00    3.561515e+00
  4.020676e+00    3.571540e+00
  4.131806e+00    3.550640e+00
  4.242935e+00    3.586294e+00
  4.354064e+00    3.567660e+00
  4.465193e+00    3.659432e+00
  4.576322e+00    3.511469e+00
  4.687451e+00    3.608659e+00
  4.798580e+00    3.631164e+00
  4.909709e+00    3.584511e+00
  5.020838e+00    3.662161e+00
  5.131967e+00    3.746689e+00
  5.243096e+00    3.715708e+00
  5.354225e+00    3.633312e+00
  5.465354e+00    3.672235e+00
  5.576483e+00    3.650839e+00
  5.687612e+00    3.609041e+00
  5.798741e+00    3.573579e+00
  5.909870e+00    3.495928e+00
  6.020999e+00    3.519742e+00
  6.132128e+00    3.581778e+00
  6.243257e+00    3.588480e+00
  6.354386e+00    3.615535e+00
  6.465515e+00    3.568837e+00
  6.576644e+00    3.525289e+00
  6.687773e+00    3.531881e+00
  6.798902e+00    3.548465e+00
  6.910031e+00    3.502691e+00
  7.021160e+00    3.509737e+00
  7.132289e+00    3.466723e+00
  7.243418e+00    3.523926e+00
  7.354547e+00    3.593368e+00
  7.465676e+00    3.480327e+00
  7.576805e+00    3.491543e+00
  7.687934e+00    3.489474e+00
  7.799063e+00    3.414153e+00
  7.910192e+00    3.367105e+00
  8.021321e+00    3.425714e+00
  8.132450e+00    3.457443e+00
  8.243579e+00    3.512392e+00
  8.354708e+00    3.391906e+00
  8.465837e+00    3.372551e+00
  8.576966e+00    3.437412e+00
  8.688095e+00    3.265235e+00
  8.799224e+00    3.315558e+00
  8.910353e+00    3.257896e+00
  9.021482e+00    3.307089e+00
  9.132611e+00    3.259600e+00
  9.243740e+00    3.215083e+00
  9.354869e+00    3.231829e+00
  9.465998e+00    3.276085e+00
  9.577127e+00    3.252351e+00
  9.688256e+00    3.192630e+00
  9.799385e+00    3.086037e+00
  9.910514e+00    3.173899e+00
  1.002164e+01    3.110289e+00
  1.013277e+01    3.110926e+00
  1.024390e+01    3.093251e+00
  1.035503e+01    3.046768e+00
  1.046616e+01    3.021342e+00
  1.057729e+01    2.968442e+00
  1.068842e+01    2.995215e+00
  1.079955e+01    2.999631e+00
  1.091068e+01    2.975888e+00
  1.102180e+01    2.953304e+00
  1.113293e+01    2.817498e+00
  1.124406e+01    2.794764e+00
  1.135519e+01    2.821792e+00
  1.146632e+01    2.812070e+00
  1.157745e+01    2.725479e+00
  1.168858e+01    2.798764e+00
  1.179971e+01    2.747051e+00
  1.191084e+01    2.695223e+00
  1.202197e+01    2.721361e+00
  1.213309e+01    2.752931e+00
  1.224422e+01    2.705560e+00
  1.235535e+01    2.745696e+00
  1.246648e+01    2.705895e+00
  1.257761e+01    2.739570e+00
  1.268874e+01    2.803543e+00
  1.279987e+01    3.008481e+00
  1.291100e+01    3.701257e+00
  1.302213e+01    6.782940e+00
  1.313326e+01    1.500556e+01
  1.324438e+01    1.071559e+01
  1.335551e+01    4.471910e+00
  1.346664e+01    3.141560e+00
  1.357777e+01    2.761123e+00
  1.368890e+01    2.573172e+00
  1.380003e+01    2.473446e+00
  1.391116e+01    2.422411e+00
  1.402229e+01    2.401366e+00
  1.413342e+01    2.302909e+00
  1.424455e+01    2.254668e+00
  1.435568e+01    2.282112e+00
  1.446680e+01    2.238495e+00
  1.457793e+01    2.228491e+00
  1.468906e+01    2.184177e+00
  1.480019e+01    2.163945e+00
  1.491132e+01    2.294467e+00
  1.502245e+01    2.504349e+00
  1.513358e+01    3.869250e+00
  1.524471e+01    5.770525e+00
  1.535584e+01    3.797069e+00
  1.546697e+01    2.429490e+00
  1.557809e+01    2.170963e+00
  1.568922e+01    2.038296e+00
  1.580035e+01    1.962197e+00
  1.591148e+01    1.861084e+00
  1.602261e+01    1.880054e+00
  1.613374e+01    1.828678e+00
  1.624487e+01    1.808345e+00
  1.635600e+01    1.830246e+00
  1.646713e+01    1.781557e+00
  1.657826e+01    1.727445e+00
  1.668938e+01    1.735176e+00
  1.680051e+01    1.725876e+00
  1.691164e+01    1.674356e+00
  1.702277e+01    1.669391e+00
  1.713390e+01    1.651422e+00
  1.724503e+01    1.622442e+00
  1.735616e+01    1.623298e+00
  1.746729e+01    1.597411e+00
  1.757842e+01    1.585148e+00
  1.768955e+01    1.575039e+00
  1.780067e+01    1.578940e+00
  1.791180e+01    1.512069e+00
  1.802293e+01    1.493656e+00
  1.813406e+01    1.477276e+00
  1.824519e+01    1.502133e+00
  1.835632e+01    1.439519e+00
  1.846745e+01    1.460903e+00
  1.857858e+01    1.437972e+00
  1.868971e+01    1.403061e+00
  1.880084e+01    1.405630e+00
  1.891196e+01    1.410156e+00
  1.902309e+01    1.389046e+00
  1.913422e+01    1.357805e+00
  1.924535e+01    1.350479e+00
  1.935648e+01    1.370753e+00
  1.946761e+01    1.326684e+00
  1.957874e+01    1.324982e+00
  1.968987e+01    1.301627e+00
  1.980100e+01    1.296417e+00
  1.991213e+01    1.280357e+00
  2.002325e+01    1.281163e+00
  2.013438e+01    1.264849e+00
  2.024551e+01    1.272079e+00
  2.035664e+01    1.247705e+00
  2.046777e+01    1.266268e+00
  2.057890e+01    1.235001e+00
  2.069003e+01    1.225467e+00
  2.080116e+01    1.225610e+00
  2.091229e+01    1.227999e+00
  2.102342e+01    1.232364e+00
  2.113455e+01    1.256453e+00
  2.124567e+01    1.255023e+00
  2.135680e+01    1.288144e+00
  2.146793e+01    1.361153e+00
  2.157906e+01    1.610907e+00
  2.169019e+01    2.544510e+00
  2.180132e+01    5.935326e+00
  2.191245e+01    8.750369e+00
  2.202358e+01    3.604018e+00
  2.213471e+01    1.861383e+00
  2.224584e+01    1.418974e+00
  2.235696e+01    1.227815e+00
  2.246809e+01    1.155961e+00
  2.257922e+01    1.110714e+00
  2.269035e+01    1.113075e+00
  2.280148e+01    1.060947e+00
  2.291261e+01    1.049163e+00
  2.302374e+01    1.017791e+00
  2.313487e+01    1.021971e+00
  2.324600e+01    9.827483e-01
  2.335713e+01    9.754840e-01
  2.346825e+01    9.772982e-01
  2.357938e+01    9.574075e-01
  2.369051e+01    9.513701e-01
  2.380164e+01    9.044732e-01
  2.391277e+01    9.122766e-01
  2.402390e+01    8.889688e-01
  2.413503e+01    8.576710e-01
  2.424616e+01    8.705411e-01
  2.435729e+01    8.886223e-01
  2.446842e+01    8.981723e-01
  2.457954e+01    8.947117e-01
  2.469067e+01    8.919585e-01
  2.480180e+01    8.933420e-01
  2.491293e+01    8.913823e-01
  2.502406e+01    8.860095e-01
  2.513519e+01    9.087549e-01
  2.524632e+01    9.440224e-01
  2.535745e+01    9.661900e-01
  2.546858e+01    1.028639e+00
  2.557971e+01    1.137394e+00
  2.569083e+01    1.495591e+00
  2.580196e+01    2.834642e+00
  2.591309e+01    6.407779e+00
  2.602422e+01    5.257298e+00
  2.613535e+01    2.127413e+00
  2.624648e+01    1.338247e+00
  2.635761e+01    1.095941e+00
  2.646874e+01    1.036930e+00
  2.657987e+01    9.809574e-01
  2.669100e+01    9.703292e-01
  2.680212e+01    9.900942e-01
  2.691325e+01    9.916440e-01
  2.702438e+01    1.159412e+00
  2.713551e+01    1.742979e+00
  2.724664e+01    2.074116e+00
  2.735777e+01    1.307163e+00
  2.746890e+01    1.010214e+00
  2.758003e+01    9.595904e-01
  2.769116e+01    9.208680e-01
  2.780229e+01    8.806104e-01
  2.791342e+01    8.875413e-01
  2.802454e+01    8.651216e-01
  2.813567e+01    8.550207e-01
  2.824680e+01    8.583971e-01
  2.835793e+01    8.528497e-01
  2.846906e+01    8.318729e-01
  2.858019e+01    8.482577e-01
  2.869132e+01    8.477113e-01
  2.880245e+01    8.374615e-01
  2.891358e+01    8.280352e-01
  2.902471e+01    8.242938e-01
  2.913583e+01    8.198181e-01
  2.924696e+01    8.093007e-01
  2.935809e+01    8.186896e-01
  2.946922e+01    8.035284e-01
  2.958035e+01    8.060547e-01
  2.969148e+01    8.155831e-01
  2.980261e+01    7.987608e-01
  2.991374e+01    7.887774e-01
  3.002487e+01    7.975628e-01
  3.013600e+01    8.060763e-01
  3.024712e+01    7.850267e-01
  3.035825e+01    8.072042e-01
  3.046938e+01    7.806538e-01
  3.058051e+01    7.859496e-01
  3.069164e+01    7.720258e-01
  3.080277e+01    7.754357e-01
  3.091390e+01    7.800395e-01
  3.102503e+01    7.952374e-01
  3.113616e+01    7.876356e-01
  3.124729e+01    7.985992e-01
  3.135841e+01    7.953500e-01
  3.146954e+01    8.123822e-01
  3.158067e+01    8.902886e-01
  3.169180e+01    1.006203e+00
  3.180293e+01    1.468797e+00
  3.191406e+01    2.094133e+00
  3.202519e+01    1.321381e+00
  3.213632e+01    9.347861e-01
  3.224745e+01    8.201972e-01
  3.235858e+01    7.849778e-01
  3.246970e+01    7.830498e-01
  3.254908e+01    7.939609e-01