File: XRD/Reaction conditions/2024-07-27_003_Ru-CGO-ex_Reaction_dwell_000023_data_000134.dat
# == pyFAI calibration ==
# Distance Sample to Detector: 0.4 m
# PONI: 9.750e-02, 1.135e-01 m
# Rotations: -0.000175 0.000000 -0.000000 rad
#
# == Fit2d calibration ==
# Distance Sample-beamCenter: 400.000 mm
# Center: x=1514.000, y=1300.000 pix
# Tilt: 0.010 deg  TiltPlanRot: 0.010 deg
#
# Detector Detector	 Spline= None	 PixelSize= 7.500e-05, 7.500e-05 m
#    Detector has a mask: False
#    Detector has a dark current: False
#    detector has a flat field: False
#
# Wavelength: 6.888e-11 m
# Mask applied: user provided
# Dark current applied: False
# Flat field applied: False
# Polarization factor: 0.99
# Normalization factor: 1.0
# --> /home/myspot/data/2024_07_Rosario/Ru-CGO-ex/2024-07-27_003_Ru-CGO-ex_Reaction_dwell_000023_data_000134.dat
#       q_nm^-1             I
  2.003187e-02    0.000000e+00
  1.311609e-01    1.070451e-01
  2.422899e-01    1.987016e-02
  3.534189e-01    4.286507e-02
  4.645479e-01    3.593591e-02
  5.756770e-01    6.943492e-02
  6.868060e-01    4.418700e-02
  7.979350e-01    1.951453e-01
  9.090640e-01    6.040126e-01
  1.020193e+00    1.322408e+00
  1.131322e+00    1.559244e+00
  1.242451e+00    2.216925e+00
  1.353580e+00    2.905854e+00
  1.464709e+00    3.017133e+00
  1.575838e+00    3.282495e+00
  1.686967e+00    2.976092e+00
  1.798096e+00    2.990138e+00
  1.909225e+00    3.092944e+00
  2.020354e+00    3.061013e+00
  2.131483e+00    3.019803e+00
  2.242612e+00    3.144403e+00
  2.353741e+00    3.203928e+00
  2.464870e+00    3.164942e+00
  2.575999e+00    3.148124e+00
  2.687128e+00    3.238113e+00
  2.798257e+00    3.259392e+00
  2.909386e+00    3.375806e+00
  3.020515e+00    3.309725e+00
  3.131644e+00    3.393154e+00
  3.242773e+00    3.339653e+00
  3.353902e+00    3.469957e+00
  3.465031e+00    3.453169e+00
  3.576160e+00    3.403171e+00
  3.687289e+00    3.595418e+00
  3.798418e+00    3.560596e+00
  3.909547e+00    3.477453e+00
  4.020676e+00    3.580802e+00
  4.131806e+00    3.548881e+00
  4.242935e+00    3.586756e+00
  4.354064e+00    3.637568e+00
  4.465193e+00    3.662335e+00
  4.576322e+00    3.632799e+00
  4.687451e+00    3.603354e+00
  4.798580e+00    3.576855e+00
  4.909709e+00    3.731506e+00
  5.020838e+00    3.632482e+00
  5.131967e+00    3.733968e+00
  5.243096e+00    3.656016e+00
  5.354225e+00    3.648088e+00
  5.465354e+00    3.617523e+00
  5.576483e+00    3.585743e+00
  5.687612e+00    3.529111e+00
  5.798741e+00    3.658377e+00
  5.909870e+00    3.555405e+00
  6.020999e+00    3.508652e+00
  6.132128e+00    3.600387e+00
  6.243257e+00    3.636206e+00
  6.354386e+00    3.479380e+00
  6.465515e+00    3.625113e+00
  6.576644e+00    3.480783e+00
  6.687773e+00    3.388139e+00
  6.798902e+00    3.500730e+00
  6.910031e+00    3.614520e+00
  7.021160e+00    3.590660e+00
  7.132289e+00    3.511752e+00
  7.243418e+00    3.488378e+00
  7.354547e+00    3.511510e+00
  7.465676e+00    3.468898e+00
  7.576805e+00    3.531155e+00
  7.687934e+00    3.419877e+00
  7.799063e+00    3.415394e+00
  7.910192e+00    3.424345e+00
  8.021321e+00    3.374619e+00
  8.132450e+00    3.464208e+00
  8.243579e+00    3.398841e+00
  8.354708e+00    3.333709e+00
  8.465837e+00    3.385467e+00
  8.576966e+00    3.348879e+00
  8.688095e+00    3.372202e+00
  8.799224e+00    3.394344e+00
  8.910353e+00    3.323385e+00
  9.021482e+00    3.260162e+00
  9.132611e+00    3.248602e+00
  9.243740e+00    3.205980e+00
  9.354869e+00    3.287634e+00
  9.465998e+00    3.171782e+00
  9.577127e+00    3.192568e+00
  9.688256e+00    3.177784e+00
  9.799385e+00    3.176030e+00
  9.910514e+00    3.130685e+00
  1.002164e+01    3.125020e+00
  1.013277e+01    3.153221e+00
  1.024390e+01    3.076788e+00
  1.035503e+01    2.995581e+00
  1.046616e+01    3.013729e+00
  1.057729e+01    3.010493e+00
  1.068842e+01    2.960879e+00
  1.079955e+01    2.925315e+00
  1.091068e+01    2.936775e+00
  1.102180e+01    2.949585e+00
  1.113293e+01    2.866918e+00
  1.124406e+01    2.914220e+00
  1.135519e+01    2.881732e+00
  1.146632e+01    2.858837e+00
  1.157745e+01    2.829211e+00
  1.168858e+01    2.793437e+00
  1.179971e+01    2.732831e+00
  1.191084e+01    2.744197e+00
  1.202197e+01    2.705324e+00
  1.213309e+01    2.688351e+00
  1.224422e+01    2.642346e+00
  1.235535e+01    2.716571e+00
  1.246648e+01    2.721401e+00
  1.257761e+01    2.678264e+00
  1.268874e+01    2.888027e+00
  1.279987e+01    3.020494e+00
  1.291100e+01    3.643352e+00
  1.302213e+01    6.741076e+00
  1.313326e+01    1.475731e+01
  1.324438e+01    1.071215e+01
  1.335551e+01    4.500591e+00
  1.346664e+01    3.132588e+00
  1.357777e+01    2.754537e+00
  1.368890e+01    2.609278e+00
  1.380003e+01    2.460197e+00
  1.391116e+01    2.418251e+00
  1.402229e+01    2.358606e+00
  1.413342e+01    2.308915e+00
  1.424455e+01    2.259675e+00
  1.435568e+01    2.268372e+00
  1.446680e+01    2.200115e+00
  1.457793e+01    2.242405e+00
  1.468906e+01    2.191250e+00
  1.480019e+01    2.205637e+00
  1.491132e+01    2.280860e+00
  1.502245e+01    2.487833e+00
  1.513358e+01    3.800577e+00
  1.524471e+01    5.726125e+00
  1.535584e+01    3.790735e+00
  1.546697e+01    2.443821e+00
  1.557809e+01    2.137206e+00
  1.568922e+01    1.999995e+00
  1.580035e+01    1.973144e+00
  1.591148e+01    1.932441e+00
  1.602261e+01    1.855886e+00
  1.613374e+01    1.889745e+00
  1.624487e+01    1.808787e+00
  1.635600e+01    1.789137e+00
  1.646713e+01    1.755189e+00
  1.657826e+01    1.738417e+00
  1.668938e+01    1.715163e+00
  1.680051e+01    1.743977e+00
  1.691164e+01    1.732673e+00
  1.702277e+01    1.679495e+00
  1.713390e+01    1.657907e+00
  1.724503e+01    1.622465e+00
  1.735616e+01    1.612292e+00
  1.746729e+01    1.607906e+00
  1.757842e+01    1.585798e+00
  1.768955e+01    1.570348e+00
  1.780067e+01    1.591435e+00
  1.791180e+01    1.529596e+00
  1.802293e+01    1.528485e+00
  1.813406e+01    1.508308e+00
  1.824519e+01    1.497390e+00
  1.835632e+01    1.487296e+00
  1.846745e+01    1.438204e+00
  1.857858e+01    1.468166e+00
  1.868971e+01    1.435773e+00
  1.880084e+01    1.413258e+00
  1.891196e+01    1.418910e+00
  1.902309e+01    1.385981e+00
  1.913422e+01    1.377377e+00
  1.924535e+01    1.366067e+00
  1.935648e+01    1.351779e+00
  1.946761e+01    1.356805e+00
  1.957874e+01    1.315125e+00
  1.968987e+01    1.288166e+00
  1.980100e+01    1.298025e+00
  1.991213e+01    1.291594e+00
  2.002325e+01    1.292932e+00
  2.013438e+01    1.292945e+00
  2.024551e+01    1.252641e+00
  2.035664e+01    1.246606e+00
  2.046777e+01    1.239925e+00
  2.057890e+01    1.244026e+00
  2.069003e+01    1.228793e+00
  2.080116e+01    1.199223e+00
  2.091229e+01    1.203980e+00
  2.102342e+01    1.203619e+00
  2.113455e+01    1.214038e+00
  2.124567e+01    1.239711e+00
  2.135680e+01    1.291417e+00
  2.146793e+01    1.351225e+00
  2.157906e+01    1.608455e+00
  2.169019e+01    2.542042e+00
  2.180132e+01    5.852634e+00
  2.191245e+01    8.730347e+00
  2.202358e+01    3.649922e+00
  2.213471e+01    1.862539e+00
  2.224584e+01    1.434479e+00
  2.235696e+01    1.235754e+00
  2.246809e+01    1.185605e+00
  2.257922e+01    1.105774e+00
  2.269035e+01    1.098239e+00
  2.280148e+01    1.049678e+00
  2.291261e+01    1.030380e+00
  2.302374e+01    1.016679e+00
  2.313487e+01    9.993346e-01
  2.324600e+01    1.029377e+00
  2.335713e+01    9.860086e-01
  2.346825e+01    9.774916e-01
  2.357938e+01    9.601837e-01
  2.369051e+01    9.383070e-01
  2.380164e+01    9.361578e-01
  2.391277e+01    8.930124e-01
  2.402390e+01    9.023053e-01
  2.413503e+01    8.841634e-01
  2.424616e+01    8.773467e-01
  2.435729e+01    8.902510e-01
  2.446842e+01    8.750755e-01
  2.457954e+01    8.879687e-01
  2.469067e+01    8.996501e-01
  2.480180e+01    8.807654e-01
  2.491293e+01    8.806272e-01
  2.502406e+01    9.070815e-01
  2.513519e+01    9.071898e-01
  2.524632e+01    9.557233e-01
  2.535745e+01    9.917053e-01
  2.546858e+01    1.030968e+00
  2.557971e+01    1.160063e+00
  2.569083e+01    1.506151e+00
  2.580196e+01    2.810026e+00
  2.591309e+01    6.368781e+00
  2.602422e+01    5.290716e+00
  2.613535e+01    2.128482e+00
  2.624648e+01    1.355555e+00
  2.635761e+01    1.124481e+00
  2.646874e+01    1.022374e+00
  2.657987e+01    9.757268e-01
  2.669100e+01    9.508099e-01
  2.680212e+01    9.800082e-01
  2.691325e+01    1.022751e+00
  2.702438e+01    1.144930e+00
  2.713551e+01    1.697161e+00
  2.724664e+01    2.110812e+00
  2.735777e+01    1.290309e+00
  2.746890e+01    1.035561e+00
  2.758003e+01    9.527153e-01
  2.769116e+01    9.156468e-01
  2.780229e+01    8.743070e-01
  2.791342e+01    8.812616e-01
  2.802454e+01    8.694324e-01
  2.813567e+01    8.237722e-01
  2.824680e+01    8.642982e-01
  2.835793e+01    8.327790e-01
  2.846906e+01    8.340793e-01
  2.858019e+01    8.371665e-01
  2.869132e+01    8.551387e-01
  2.880245e+01    8.190684e-01
  2.891358e+01    8.222227e-01
  2.902471e+01    8.166264e-01
  2.913583e+01    7.996356e-01
  2.924696e+01    8.002731e-01
  2.935809e+01    7.976472e-01
  2.946922e+01    8.152995e-01
  2.958035e+01    7.777838e-01
  2.969148e+01    8.222830e-01
  2.980261e+01    7.919979e-01
  2.991374e+01    7.936883e-01
  3.002487e+01    8.103783e-01
  3.013600e+01    7.893338e-01
  3.024712e+01    7.825140e-01
  3.035825e+01    7.992412e-01
  3.046938e+01    7.776577e-01
  3.058051e+01    7.676233e-01
  3.069164e+01    7.886859e-01
  3.080277e+01    7.896445e-01
  3.091390e+01    7.941277e-01
  3.102503e+01    7.913048e-01
  3.113616e+01    7.589792e-01
  3.124729e+01    8.048858e-01
  3.135841e+01    8.184748e-01
  3.146954e+01    8.309132e-01
  3.158067e+01    8.416678e-01
  3.169180e+01    1.017434e+00
  3.180293e+01    1.492198e+00
  3.191406e+01    2.017854e+00
  3.202519e+01    1.344003e+00
  3.213632e+01    9.520687e-01
  3.224745e+01    8.517869e-01
  3.235858e+01    8.049350e-01
  3.246970e+01    7.964540e-01
  3.254908e+01    7.825356e-01