File: XRD/Reaction conditions/2024-07-27_003_Ru-CGO-ex_Reaction_dwell_000023_data_000039.dat
# == pyFAI calibration ==
# Distance Sample to Detector: 0.4 m
# PONI: 9.750e-02, 1.135e-01 m
# Rotations: -0.000175 0.000000 -0.000000 rad
#
# == Fit2d calibration ==
# Distance Sample-beamCenter: 400.000 mm
# Center: x=1514.000, y=1300.000 pix
# Tilt: 0.010 deg  TiltPlanRot: 0.010 deg
#
# Detector Detector	 Spline= None	 PixelSize= 7.500e-05, 7.500e-05 m
#    Detector has a mask: False
#    Detector has a dark current: False
#    detector has a flat field: False
#
# Wavelength: 6.888e-11 m
# Mask applied: user provided
# Dark current applied: False
# Flat field applied: False
# Polarization factor: 0.99
# Normalization factor: 1.0
# --> /home/myspot/data/2024_07_Rosario/Ru-CGO-ex/2024-07-27_003_Ru-CGO-ex_Reaction_dwell_000023_data_000039.dat
#       q_nm^-1             I
  2.003187e-02    7.711996e-02
  1.311609e-01    1.787686e-01
  2.422899e-01    0.000000e+00
  3.534189e-01    5.742275e-02
  4.645479e-01    2.777903e-02
  5.756770e-01    1.965607e-02
  6.868060e-01    4.570257e-02
  7.979350e-01    1.487609e-01
  9.090640e-01    6.916260e-01
  1.020193e+00    1.341385e+00
  1.131322e+00    1.621443e+00
  1.242451e+00    2.351963e+00
  1.353580e+00    2.793838e+00
  1.464709e+00    3.142754e+00
  1.575838e+00    3.246800e+00
  1.686967e+00    3.168767e+00
  1.798096e+00    3.091245e+00
  1.909225e+00    2.978550e+00
  2.020354e+00    2.942986e+00
  2.131483e+00    3.142737e+00
  2.242612e+00    3.140647e+00
  2.353741e+00    3.200355e+00
  2.464870e+00    3.350961e+00
  2.575999e+00    3.254601e+00
  2.687128e+00    3.195777e+00
  2.798257e+00    3.271096e+00
  2.909386e+00    3.292199e+00
  3.020515e+00    3.322937e+00
  3.131644e+00    3.291185e+00
  3.242773e+00    3.416559e+00
  3.353902e+00    3.362478e+00
  3.465031e+00    3.531039e+00
  3.576160e+00    3.427281e+00
  3.687289e+00    3.588066e+00
  3.798418e+00    3.562916e+00
  3.909547e+00    3.574698e+00
  4.020676e+00    3.535666e+00
  4.131806e+00    3.505556e+00
  4.242935e+00    3.543373e+00
  4.354064e+00    3.574656e+00
  4.465193e+00    3.591649e+00
  4.576322e+00    3.671316e+00
  4.687451e+00    3.654713e+00
  4.798580e+00    3.641410e+00
  4.909709e+00    3.696168e+00
  5.020838e+00    3.670014e+00
  5.131967e+00    3.724700e+00
  5.243096e+00    3.689998e+00
  5.354225e+00    3.769102e+00
  5.465354e+00    3.685518e+00
  5.576483e+00    3.647569e+00
  5.687612e+00    3.517647e+00
  5.798741e+00    3.622837e+00
  5.909870e+00    3.526254e+00
  6.020999e+00    3.551149e+00
  6.132128e+00    3.678273e+00
  6.243257e+00    3.643213e+00
  6.354386e+00    3.471421e+00
  6.465515e+00    3.607598e+00
  6.576644e+00    3.506072e+00
  6.687773e+00    3.630956e+00
  6.798902e+00    3.566967e+00
  6.910031e+00    3.540273e+00
  7.021160e+00    3.575896e+00
  7.132289e+00    3.523508e+00
  7.243418e+00    3.534956e+00
  7.354547e+00    3.535323e+00
  7.465676e+00    3.552487e+00
  7.576805e+00    3.500456e+00
  7.687934e+00    3.473404e+00
  7.799063e+00    3.490659e+00
  7.910192e+00    3.478059e+00
  8.021321e+00    3.399644e+00
  8.132450e+00    3.480116e+00
  8.243579e+00    3.411550e+00
  8.354708e+00    3.387815e+00
  8.465837e+00    3.356236e+00
  8.576966e+00    3.378640e+00
  8.688095e+00    3.291016e+00
  8.799224e+00    3.367455e+00
  8.910353e+00    3.319521e+00
  9.021482e+00    3.326841e+00
  9.132611e+00    3.325845e+00
  9.243740e+00    3.312690e+00
  9.354869e+00    3.272308e+00
  9.465998e+00    3.257415e+00
  9.577127e+00    3.203716e+00
  9.688256e+00    3.244714e+00
  9.799385e+00    3.154429e+00
  9.910514e+00    3.127439e+00
  1.002164e+01    3.178998e+00
  1.013277e+01    3.107971e+00
  1.024390e+01    3.040867e+00
  1.035503e+01    3.023056e+00
  1.046616e+01    3.070896e+00
  1.057729e+01    3.053800e+00
  1.068842e+01    2.942936e+00
  1.079955e+01    2.951726e+00
  1.091068e+01    2.941752e+00
  1.102180e+01    2.885632e+00
  1.113293e+01    2.918685e+00
  1.124406e+01    2.838745e+00
  1.135519e+01    2.811511e+00
  1.146632e+01    2.876915e+00
  1.157745e+01    2.783527e+00
  1.168858e+01    2.809560e+00
  1.179971e+01    2.789236e+00
  1.191084e+01    2.727318e+00
  1.202197e+01    2.742376e+00
  1.213309e+01    2.705441e+00
  1.224422e+01    2.697693e+00
  1.235535e+01    2.711757e+00
  1.246648e+01    2.721051e+00
  1.257761e+01    2.743215e+00
  1.268874e+01    2.835929e+00
  1.279987e+01    3.058170e+00
  1.291100e+01    3.678208e+00
  1.302213e+01    6.866274e+00
  1.313326e+01    1.498369e+01
  1.324438e+01    1.077119e+01
  1.335551e+01    4.492405e+00
  1.346664e+01    3.166499e+00
  1.357777e+01    2.767009e+00
  1.368890e+01    2.629969e+00
  1.380003e+01    2.508842e+00
  1.391116e+01    2.408451e+00
  1.402229e+01    2.337078e+00
  1.413342e+01    2.357821e+00
  1.424455e+01    2.343347e+00
  1.435568e+01    2.238549e+00
  1.446680e+01    2.250291e+00
  1.457793e+01    2.214409e+00
  1.468906e+01    2.261396e+00
  1.480019e+01    2.226494e+00
  1.491132e+01    2.296099e+00
  1.502245e+01    2.524736e+00
  1.513358e+01    3.862425e+00
  1.524471e+01    5.833667e+00
  1.535584e+01    3.819558e+00
  1.546697e+01    2.465965e+00
  1.557809e+01    2.146186e+00
  1.568922e+01    2.047264e+00
  1.580035e+01    1.952453e+00
  1.591148e+01    1.906359e+00
  1.602261e+01    1.862639e+00
  1.613374e+01    1.862807e+00
  1.624487e+01    1.824541e+00
  1.635600e+01    1.754095e+00
  1.646713e+01    1.746605e+00
  1.657826e+01    1.769635e+00
  1.668938e+01    1.704812e+00
  1.680051e+01    1.730106e+00
  1.691164e+01    1.699442e+00
  1.702277e+01    1.650121e+00
  1.713390e+01    1.662741e+00
  1.724503e+01    1.665523e+00
  1.735616e+01    1.632729e+00
  1.746729e+01    1.590596e+00
  1.757842e+01    1.582585e+00
  1.768955e+01    1.586012e+00
  1.780067e+01    1.541944e+00
  1.791180e+01    1.525142e+00
  1.802293e+01    1.556166e+00
  1.813406e+01    1.498350e+00
  1.824519e+01    1.475096e+00
  1.835632e+01    1.462799e+00
  1.846745e+01    1.472916e+00
  1.857858e+01    1.437490e+00
  1.868971e+01    1.410043e+00
  1.880084e+01    1.377879e+00
  1.891196e+01    1.402916e+00
  1.902309e+01    1.406746e+00
  1.913422e+01    1.355462e+00
  1.924535e+01    1.353317e+00
  1.935648e+01    1.348006e+00
  1.946761e+01    1.344573e+00
  1.957874e+01    1.367864e+00
  1.968987e+01    1.319506e+00
  1.980100e+01    1.316586e+00
  1.991213e+01    1.284195e+00
  2.002325e+01    1.298804e+00
  2.013438e+01    1.268633e+00
  2.024551e+01    1.267283e+00
  2.035664e+01    1.228177e+00
  2.046777e+01    1.233643e+00
  2.057890e+01    1.237883e+00
  2.069003e+01    1.231189e+00
  2.080116e+01    1.240315e+00
  2.091229e+01    1.220121e+00
  2.102342e+01    1.235033e+00
  2.113455e+01    1.229226e+00
  2.124567e+01    1.242820e+00
  2.135680e+01    1.296673e+00
  2.146793e+01    1.399431e+00
  2.157906e+01    1.626387e+00
  2.169019e+01    2.533870e+00
  2.180132e+01    5.914872e+00
  2.191245e+01    8.776907e+00
  2.202358e+01    3.646765e+00
  2.213471e+01    1.860808e+00
  2.224584e+01    1.402471e+00
  2.235696e+01    1.256388e+00
  2.246809e+01    1.175333e+00
  2.257922e+01    1.103591e+00
  2.269035e+01    1.097217e+00
  2.280148e+01    1.088064e+00
  2.291261e+01    1.044943e+00
  2.302374e+01    1.016993e+00
  2.313487e+01    1.029423e+00
  2.324600e+01    9.869747e-01
  2.335713e+01    9.829981e-01
  2.346825e+01    9.746687e-01
  2.357938e+01    9.776636e-01
  2.369051e+01    9.281729e-01
  2.380164e+01    9.265544e-01
  2.391277e+01    9.031529e-01
  2.402390e+01    9.130352e-01
  2.413503e+01    9.040849e-01
  2.424616e+01    8.801893e-01
  2.435729e+01    9.187942e-01
  2.446842e+01    8.993934e-01
  2.457954e+01    8.847697e-01
  2.469067e+01    9.208567e-01
  2.480180e+01    8.839255e-01
  2.491293e+01    8.753096e-01
  2.502406e+01    9.000661e-01
  2.513519e+01    9.194467e-01
  2.524632e+01    9.264958e-01
  2.535745e+01    9.841777e-01
  2.546858e+01    1.020464e+00
  2.557971e+01    1.144028e+00
  2.569083e+01    1.508259e+00
  2.580196e+01    2.856150e+00
  2.591309e+01    6.446355e+00
  2.602422e+01    5.244686e+00
  2.613535e+01    2.123892e+00
  2.624648e+01    1.369207e+00
  2.635761e+01    1.100372e+00
  2.646874e+01    1.034000e+00
  2.657987e+01    9.893810e-01
  2.669100e+01    9.845186e-01
  2.680212e+01    9.735870e-01
  2.691325e+01    1.029761e+00
  2.702438e+01    1.162619e+00
  2.713551e+01    1.731710e+00
  2.724664e+01    2.106563e+00
  2.735777e+01    1.306118e+00
  2.746890e+01    1.015679e+00
  2.758003e+01    9.562634e-01
  2.769116e+01    8.904519e-01
  2.780229e+01    8.850479e-01
  2.791342e+01    8.633243e-01
  2.802454e+01    8.939019e-01
  2.813567e+01    8.424668e-01
  2.824680e+01    8.451885e-01
  2.835793e+01    8.462706e-01
  2.846906e+01    8.582113e-01
  2.858019e+01    8.388981e-01
  2.869132e+01    8.603761e-01
  2.880245e+01    8.348568e-01
  2.891358e+01    8.382974e-01
  2.902471e+01    8.296826e-01
  2.913583e+01    8.311520e-01
  2.924696e+01    8.040690e-01
  2.935809e+01    8.241938e-01
  2.946922e+01    7.948534e-01
  2.958035e+01    8.113046e-01
  2.969148e+01    8.037887e-01
  2.980261e+01    8.073850e-01
  2.991374e+01    7.946821e-01
  3.002487e+01    8.122310e-01
  3.013600e+01    7.964368e-01
  3.024712e+01    7.670206e-01
  3.035825e+01    7.761881e-01
  3.046938e+01    7.703224e-01
  3.058051e+01    7.939542e-01
  3.069164e+01    7.970294e-01
  3.080277e+01    7.880204e-01
  3.091390e+01    7.959936e-01
  3.102503e+01    8.092977e-01
  3.113616e+01    7.928533e-01
  3.124729e+01    7.803239e-01
  3.135841e+01    8.042658e-01
  3.146954e+01    8.274565e-01
  3.158067e+01    8.578599e-01
  3.169180e+01    1.011620e+00
  3.180293e+01    1.482857e+00
  3.191406e+01    2.097362e+00
  3.202519e+01    1.337916e+00
  3.213632e+01    9.568053e-01
  3.224745e+01    8.477629e-01
  3.235858e+01    8.091909e-01
  3.246970e+01    8.005507e-01
  3.254908e+01    8.025742e-01