File: XRD/Reaction conditions/2024-07-27_003_Ru-CGO-ex_Reaction_dwell_000023_data_000146.dat
# == pyFAI calibration ==
# Distance Sample to Detector: 0.4 m
# PONI: 9.750e-02, 1.135e-01 m
# Rotations: -0.000175 0.000000 -0.000000 rad
#
# == Fit2d calibration ==
# Distance Sample-beamCenter: 400.000 mm
# Center: x=1514.000, y=1300.000 pix
# Tilt: 0.010 deg  TiltPlanRot: 0.010 deg
#
# Detector Detector	 Spline= None	 PixelSize= 7.500e-05, 7.500e-05 m
#    Detector has a mask: False
#    Detector has a dark current: False
#    detector has a flat field: False
#
# Wavelength: 6.888e-11 m
# Mask applied: user provided
# Dark current applied: False
# Flat field applied: False
# Polarization factor: 0.99
# Normalization factor: 1.0
# --> /home/myspot/data/2024_07_Rosario/Ru-CGO-ex/2024-07-27_003_Ru-CGO-ex_Reaction_dwell_000023_data_000146.dat
#       q_nm^-1             I
  2.003187e-02    7.711996e-02
  1.311609e-01    4.739453e-02
  2.422899e-01    5.891737e-02
  3.534189e-01    2.821287e-02
  4.645479e-01    3.097538e-02
  5.756770e-01    3.064570e-02
  6.868060e-01    4.672489e-02
  7.979350e-01    1.517009e-01
  9.090640e-01    6.733895e-01
  1.020193e+00    1.327144e+00
  1.131322e+00    1.516257e+00
  1.242451e+00    2.377762e+00
  1.353580e+00    2.829695e+00
  1.464709e+00    3.004078e+00
  1.575838e+00    3.286075e+00
  1.686967e+00    3.085355e+00
  1.798096e+00    3.073503e+00
  1.909225e+00    3.003758e+00
  2.020354e+00    3.183617e+00
  2.131483e+00    3.098851e+00
  2.242612e+00    3.017839e+00
  2.353741e+00    3.197908e+00
  2.464870e+00    3.140598e+00
  2.575999e+00    3.236338e+00
  2.687128e+00    3.173558e+00
  2.798257e+00    3.222310e+00
  2.909386e+00    3.276126e+00
  3.020515e+00    3.312616e+00
  3.131644e+00    3.401776e+00
  3.242773e+00    3.464984e+00
  3.353902e+00    3.399551e+00
  3.465031e+00    3.443578e+00
  3.576160e+00    3.531367e+00
  3.687289e+00    3.476683e+00
  3.798418e+00    3.437009e+00
  3.909547e+00    3.471200e+00
  4.020676e+00    3.564705e+00
  4.131806e+00    3.511526e+00
  4.242935e+00    3.568341e+00
  4.354064e+00    3.598211e+00
  4.465193e+00    3.591906e+00
  4.576322e+00    3.558602e+00
  4.687451e+00    3.623330e+00
  4.798580e+00    3.558834e+00
  4.909709e+00    3.647071e+00
  5.020838e+00    3.672364e+00
  5.131967e+00    3.734413e+00
  5.243096e+00    3.671833e+00
  5.354225e+00    3.605569e+00
  5.465354e+00    3.559782e+00
  5.576483e+00    3.619007e+00
  5.687612e+00    3.684118e+00
  5.798741e+00    3.482971e+00
  5.909870e+00    3.536098e+00
  6.020999e+00    3.482969e+00
  6.132128e+00    3.644432e+00
  6.243257e+00    3.657430e+00
  6.354386e+00    3.542025e+00
  6.465515e+00    3.521578e+00
  6.576644e+00    3.540203e+00
  6.687773e+00    3.609555e+00
  6.798902e+00    3.581638e+00
  6.910031e+00    3.561058e+00
  7.021160e+00    3.542001e+00
  7.132289e+00    3.571711e+00
  7.243418e+00    3.501168e+00
  7.354547e+00    3.531930e+00
  7.465676e+00    3.505396e+00
  7.576805e+00    3.446425e+00
  7.687934e+00    3.401144e+00
  7.799063e+00    3.404730e+00
  7.910192e+00    3.421509e+00
  8.021321e+00    3.410655e+00
  8.132450e+00    3.378227e+00
  8.243579e+00    3.434271e+00
  8.354708e+00    3.376314e+00
  8.465837e+00    3.359246e+00
  8.576966e+00    3.335926e+00
  8.688095e+00    3.284541e+00
  8.799224e+00    3.302957e+00
  8.910353e+00    3.270788e+00
  9.021482e+00    3.269814e+00
  9.132611e+00    3.187577e+00
  9.243740e+00    3.208179e+00
  9.354869e+00    3.252221e+00
  9.465998e+00    3.166576e+00
  9.577127e+00    3.235504e+00
  9.688256e+00    3.207029e+00
  9.799385e+00    3.219859e+00
  9.910514e+00    3.166322e+00
  1.002164e+01    3.094841e+00
  1.013277e+01    3.084532e+00
  1.024390e+01    3.067827e+00
  1.035503e+01    3.040868e+00
  1.046616e+01    3.009618e+00
  1.057729e+01    2.996019e+00
  1.068842e+01    2.962365e+00
  1.079955e+01    2.898624e+00
  1.091068e+01    2.914060e+00
  1.102180e+01    2.905133e+00
  1.113293e+01    2.816728e+00
  1.124406e+01    2.837184e+00
  1.135519e+01    2.841560e+00
  1.146632e+01    2.819560e+00
  1.157745e+01    2.771056e+00
  1.168858e+01    2.695649e+00
  1.179971e+01    2.739159e+00
  1.191084e+01    2.745622e+00
  1.202197e+01    2.705764e+00
  1.213309e+01    2.659872e+00
  1.224422e+01    2.690217e+00
  1.235535e+01    2.670251e+00
  1.246648e+01    2.715171e+00
  1.257761e+01    2.680907e+00
  1.268874e+01    2.798455e+00
  1.279987e+01    2.981195e+00
  1.291100e+01    3.637839e+00
  1.302213e+01    6.646097e+00
  1.313326e+01    1.451240e+01
  1.324438e+01    1.072680e+01
  1.335551e+01    4.399936e+00
  1.346664e+01    3.161436e+00
  1.357777e+01    2.729074e+00
  1.368890e+01    2.567485e+00
  1.380003e+01    2.461488e+00
  1.391116e+01    2.419919e+00
  1.402229e+01    2.378409e+00
  1.413342e+01    2.325144e+00
  1.424455e+01    2.253397e+00
  1.435568e+01    2.235043e+00
  1.446680e+01    2.235951e+00
  1.457793e+01    2.223063e+00
  1.468906e+01    2.194981e+00
  1.480019e+01    2.240257e+00
  1.491132e+01    2.244763e+00
  1.502245e+01    2.517741e+00
  1.513358e+01    3.801787e+00
  1.524471e+01    5.684181e+00
  1.535584e+01    3.738819e+00
  1.546697e+01    2.413138e+00
  1.557809e+01    2.129407e+00
  1.568922e+01    2.001934e+00
  1.580035e+01    1.932023e+00
  1.591148e+01    1.903093e+00
  1.602261e+01    1.856044e+00
  1.613374e+01    1.834143e+00
  1.624487e+01    1.818858e+00
  1.635600e+01    1.787866e+00
  1.646713e+01    1.723262e+00
  1.657826e+01    1.775444e+00
  1.668938e+01    1.714642e+00
  1.680051e+01    1.737538e+00
  1.691164e+01    1.648481e+00
  1.702277e+01    1.674260e+00
  1.713390e+01    1.675779e+00
  1.724503e+01    1.577111e+00
  1.735616e+01    1.615036e+00
  1.746729e+01    1.608856e+00
  1.757842e+01    1.555458e+00
  1.768955e+01    1.564117e+00
  1.780067e+01    1.536723e+00
  1.791180e+01    1.513520e+00
  1.802293e+01    1.498525e+00
  1.813406e+01    1.480375e+00
  1.824519e+01    1.481134e+00
  1.835632e+01    1.462313e+00
  1.846745e+01    1.461284e+00
  1.857858e+01    1.442700e+00
  1.868971e+01    1.452124e+00
  1.880084e+01    1.418248e+00
  1.891196e+01    1.385037e+00
  1.902309e+01    1.375313e+00
  1.913422e+01    1.363794e+00
  1.924535e+01    1.331092e+00
  1.935648e+01    1.349374e+00
  1.946761e+01    1.311606e+00
  1.957874e+01    1.350818e+00
  1.968987e+01    1.318178e+00
  1.980100e+01    1.300775e+00
  1.991213e+01    1.298497e+00
  2.002325e+01    1.260658e+00
  2.013438e+01    1.244085e+00
  2.024551e+01    1.281789e+00
  2.035664e+01    1.248141e+00
  2.046777e+01    1.233150e+00
  2.057890e+01    1.248906e+00
  2.069003e+01    1.252503e+00
  2.080116e+01    1.226695e+00
  2.091229e+01    1.228887e+00
  2.102342e+01    1.218072e+00
  2.113455e+01    1.237229e+00
  2.124567e+01    1.235232e+00
  2.135680e+01    1.291461e+00
  2.146793e+01    1.372647e+00
  2.157906e+01    1.650873e+00
  2.169019e+01    2.478518e+00
  2.180132e+01    5.817656e+00
  2.191245e+01    8.616192e+00
  2.202358e+01    3.623759e+00
  2.213471e+01    1.875521e+00
  2.224584e+01    1.409406e+00
  2.235696e+01    1.232170e+00
  2.246809e+01    1.134054e+00
  2.257922e+01    1.131657e+00
  2.269035e+01    1.067487e+00
  2.280148e+01    1.040063e+00
  2.291261e+01    1.040280e+00
  2.302374e+01    1.018009e+00
  2.313487e+01    1.011975e+00
  2.324600e+01    9.819431e-01
  2.335713e+01    9.874495e-01
  2.346825e+01    9.598293e-01
  2.357938e+01    9.466606e-01
  2.369051e+01    9.492245e-01
  2.380164e+01    9.219778e-01
  2.391277e+01    9.031319e-01
  2.402390e+01    9.043434e-01
  2.413503e+01    8.646851e-01
  2.424616e+01    8.735765e-01
  2.435729e+01    8.832743e-01
  2.446842e+01    8.758216e-01
  2.457954e+01    8.997948e-01
  2.469067e+01    8.870944e-01
  2.480180e+01    8.678355e-01
  2.491293e+01    8.722709e-01
  2.502406e+01    8.819765e-01
  2.513519e+01    9.115853e-01
  2.524632e+01    9.206894e-01
  2.535745e+01    9.904111e-01
  2.546858e+01    1.030167e+00
  2.557971e+01    1.145404e+00
  2.569083e+01    1.490118e+00
  2.580196e+01    2.779834e+00
  2.591309e+01    6.253247e+00
  2.602422e+01    5.263645e+00
  2.613535e+01    2.138094e+00
  2.624648e+01    1.367880e+00
  2.635761e+01    1.099583e+00
  2.646874e+01    1.031100e+00
  2.657987e+01    9.882310e-01
  2.669100e+01    9.565343e-01
  2.680212e+01    9.799905e-01
  2.691325e+01    1.023326e+00
  2.702438e+01    1.129778e+00
  2.713551e+01    1.697852e+00
  2.724664e+01    2.101679e+00
  2.735777e+01    1.288514e+00
  2.746890e+01    1.026490e+00
  2.758003e+01    9.342957e-01
  2.769116e+01    8.868847e-01
  2.780229e+01    8.815956e-01
  2.791342e+01    8.641297e-01
  2.802454e+01    8.616135e-01
  2.813567e+01    8.348183e-01
  2.824680e+01    8.556747e-01
  2.835793e+01    8.650789e-01
  2.846906e+01    8.298432e-01
  2.858019e+01    8.340029e-01
  2.869132e+01    8.414283e-01
  2.880245e+01    8.331391e-01
  2.891358e+01    8.245157e-01
  2.902471e+01    8.201649e-01
  2.913583e+01    8.113233e-01
  2.924696e+01    8.189311e-01
  2.935809e+01    8.309268e-01
  2.946922e+01    7.876553e-01
  2.958035e+01    8.194823e-01
  2.969148e+01    7.991299e-01
  2.980261e+01    8.077103e-01
  2.991374e+01    7.945499e-01
  3.002487e+01    8.068432e-01
  3.013600e+01    8.070480e-01
  3.024712e+01    7.892841e-01
  3.035825e+01    7.759751e-01
  3.046938e+01    7.688329e-01
  3.058051e+01    7.743005e-01
  3.069164e+01    7.592162e-01
  3.080277e+01    7.781372e-01
  3.091390e+01    7.779964e-01
  3.102503e+01    7.705892e-01
  3.113616e+01    7.868483e-01
  3.124729e+01    7.881427e-01
  3.135841e+01    7.922719e-01
  3.146954e+01    8.047495e-01
  3.158067e+01    8.650194e-01
  3.169180e+01    9.899698e-01
  3.180293e+01    1.459594e+00
  3.191406e+01    2.077220e+00
  3.202519e+01    1.338167e+00
  3.213632e+01    9.301708e-01
  3.224745e+01    8.281707e-01
  3.235858e+01    8.188294e-01
  3.246970e+01    7.806658e-01
  3.254908e+01    7.696227e-01