File: XRD/Reaction conditions/2024-07-27_003_Ru-CGO-ex_Reaction_dwell_000023_data_000063.dat
# == pyFAI calibration ==
# Distance Sample to Detector: 0.4 m
# PONI: 9.750e-02, 1.135e-01 m
# Rotations: -0.000175 0.000000 -0.000000 rad
#
# == Fit2d calibration ==
# Distance Sample-beamCenter: 400.000 mm
# Center: x=1514.000, y=1300.000 pix
# Tilt: 0.010 deg  TiltPlanRot: 0.010 deg
#
# Detector Detector	 Spline= None	 PixelSize= 7.500e-05, 7.500e-05 m
#    Detector has a mask: False
#    Detector has a dark current: False
#    detector has a flat field: False
#
# Wavelength: 6.888e-11 m
# Mask applied: user provided
# Dark current applied: False
# Flat field applied: False
# Polarization factor: 0.99
# Normalization factor: 1.0
# --> /home/myspot/data/2024_07_Rosario/Ru-CGO-ex/2024-07-27_003_Ru-CGO-ex_Reaction_dwell_000023_data_000063.dat
#       q_nm^-1             I
  2.003187e-02    1.424646e-01
  1.311609e-01    8.537076e-02
  2.422899e-01    3.255604e-02
  3.534189e-01    3.128752e-02
  4.645479e-01    4.289914e-02
  5.756770e-01    4.482795e-02
  6.868060e-01    6.104283e-02
  7.979350e-01    2.062866e-01
  9.090640e-01    6.588401e-01
  1.020193e+00    1.359110e+00
  1.131322e+00    1.587575e+00
  1.242451e+00    2.443845e+00
  1.353580e+00    2.726701e+00
  1.464709e+00    2.857142e+00
  1.575838e+00    3.087497e+00
  1.686967e+00    3.153193e+00
  1.798096e+00    3.084762e+00
  1.909225e+00    3.012115e+00
  2.020354e+00    3.051656e+00
  2.131483e+00    3.141594e+00
  2.242612e+00    3.182851e+00
  2.353741e+00    3.178327e+00
  2.464870e+00    3.018399e+00
  2.575999e+00    3.187687e+00
  2.687128e+00    3.277602e+00
  2.798257e+00    3.238196e+00
  2.909386e+00    3.290908e+00
  3.020515e+00    3.273979e+00
  3.131644e+00    3.428448e+00
  3.242773e+00    3.474503e+00
  3.353902e+00    3.469008e+00
  3.465031e+00    3.425209e+00
  3.576160e+00    3.489048e+00
  3.687289e+00    3.536129e+00
  3.798418e+00    3.488386e+00
  3.909547e+00    3.489590e+00
  4.020676e+00    3.553622e+00
  4.131806e+00    3.535086e+00
  4.242935e+00    3.621179e+00
  4.354064e+00    3.595421e+00
  4.465193e+00    3.580278e+00
  4.576322e+00    3.599957e+00
  4.687451e+00    3.625423e+00
  4.798580e+00    3.629665e+00
  4.909709e+00    3.677084e+00
  5.020838e+00    3.641577e+00
  5.131967e+00    3.722867e+00
  5.243096e+00    3.673756e+00
  5.354225e+00    3.646790e+00
  5.465354e+00    3.644266e+00
  5.576483e+00    3.602939e+00
  5.687612e+00    3.575459e+00
  5.798741e+00    3.615211e+00
  5.909870e+00    3.466894e+00
  6.020999e+00    3.580144e+00
  6.132128e+00    3.621085e+00
  6.243257e+00    3.561279e+00
  6.354386e+00    3.545928e+00
  6.465515e+00    3.640815e+00
  6.576644e+00    3.544314e+00
  6.687773e+00    3.594797e+00
  6.798902e+00    3.615498e+00
  6.910031e+00    3.499753e+00
  7.021160e+00    3.569032e+00
  7.132289e+00    3.515505e+00
  7.243418e+00    3.506351e+00
  7.354547e+00    3.483642e+00
  7.465676e+00    3.551204e+00
  7.576805e+00    3.485744e+00
  7.687934e+00    3.431260e+00
  7.799063e+00    3.383549e+00
  7.910192e+00    3.448265e+00
  8.021321e+00    3.430971e+00
  8.132450e+00    3.456368e+00
  8.243579e+00    3.377970e+00
  8.354708e+00    3.412119e+00
  8.465837e+00    3.459665e+00
  8.576966e+00    3.371283e+00
  8.688095e+00    3.421758e+00
  8.799224e+00    3.381850e+00
  8.910353e+00    3.274050e+00
  9.021482e+00    3.271164e+00
  9.132611e+00    3.315582e+00
  9.243740e+00    3.207238e+00
  9.354869e+00    3.217914e+00
  9.465998e+00    3.210418e+00
  9.577127e+00    3.172757e+00
  9.688256e+00    3.246680e+00
  9.799385e+00    3.165921e+00
  9.910514e+00    3.120365e+00
  1.002164e+01    3.117795e+00
  1.013277e+01    3.104472e+00
  1.024390e+01    3.116470e+00
  1.035503e+01    3.088341e+00
  1.046616e+01    3.030632e+00
  1.057729e+01    3.056221e+00
  1.068842e+01    2.997364e+00
  1.079955e+01    2.984158e+00
  1.091068e+01    2.914358e+00
  1.102180e+01    2.901005e+00
  1.113293e+01    2.870932e+00
  1.124406e+01    2.837502e+00
  1.135519e+01    2.859171e+00
  1.146632e+01    2.801671e+00
  1.157745e+01    2.776080e+00
  1.168858e+01    2.719425e+00
  1.179971e+01    2.723511e+00
  1.191084e+01    2.700371e+00
  1.202197e+01    2.738852e+00
  1.213309e+01    2.693830e+00
  1.224422e+01    2.738959e+00
  1.235535e+01    2.731286e+00
  1.246648e+01    2.768934e+00
  1.257761e+01    2.714610e+00
  1.268874e+01    2.789291e+00
  1.279987e+01    2.968573e+00
  1.291100e+01    3.622687e+00
  1.302213e+01    6.758635e+00
  1.313326e+01    1.497002e+01
  1.324438e+01    1.079288e+01
  1.335551e+01    4.449718e+00
  1.346664e+01    3.174278e+00
  1.357777e+01    2.757385e+00
  1.368890e+01    2.583456e+00
  1.380003e+01    2.477179e+00
  1.391116e+01    2.334188e+00
  1.402229e+01    2.363435e+00
  1.413342e+01    2.326766e+00
  1.424455e+01    2.303735e+00
  1.435568e+01    2.276144e+00
  1.446680e+01    2.250098e+00
  1.457793e+01    2.257638e+00
  1.468906e+01    2.214828e+00
  1.480019e+01    2.204957e+00
  1.491132e+01    2.246875e+00
  1.502245e+01    2.534454e+00
  1.513358e+01    3.810732e+00
  1.524471e+01    5.802895e+00
  1.535584e+01    3.808552e+00
  1.546697e+01    2.418644e+00
  1.557809e+01    2.143340e+00
  1.568922e+01    1.986218e+00
  1.580035e+01    1.930238e+00
  1.591148e+01    1.902645e+00
  1.602261e+01    1.881719e+00
  1.613374e+01    1.857347e+00
  1.624487e+01    1.800276e+00
  1.635600e+01    1.818650e+00
  1.646713e+01    1.781116e+00
  1.657826e+01    1.747717e+00
  1.668938e+01    1.687900e+00
  1.680051e+01    1.712742e+00
  1.691164e+01    1.710346e+00
  1.702277e+01    1.671129e+00
  1.713390e+01    1.665272e+00
  1.724503e+01    1.626085e+00
  1.735616e+01    1.586108e+00
  1.746729e+01    1.583386e+00
  1.757842e+01    1.582258e+00
  1.768955e+01    1.539876e+00
  1.780067e+01    1.538945e+00
  1.791180e+01    1.534582e+00
  1.802293e+01    1.511482e+00
  1.813406e+01    1.489254e+00
  1.824519e+01    1.468504e+00
  1.835632e+01    1.477709e+00
  1.846745e+01    1.467480e+00
  1.857858e+01    1.449881e+00
  1.868971e+01    1.425521e+00
  1.880084e+01    1.404992e+00
  1.891196e+01    1.370913e+00
  1.902309e+01    1.357361e+00
  1.913422e+01    1.358759e+00
  1.924535e+01    1.356306e+00
  1.935648e+01    1.352015e+00
  1.946761e+01    1.328629e+00
  1.957874e+01    1.304626e+00
  1.968987e+01    1.306889e+00
  1.980100e+01    1.286481e+00
  1.991213e+01    1.279161e+00
  2.002325e+01    1.292773e+00
  2.013438e+01    1.288778e+00
  2.024551e+01    1.252056e+00
  2.035664e+01    1.266163e+00
  2.046777e+01    1.238369e+00
  2.057890e+01    1.240175e+00
  2.069003e+01    1.225350e+00
  2.080116e+01    1.219747e+00
  2.091229e+01    1.217136e+00
  2.102342e+01    1.226445e+00
  2.113455e+01    1.232865e+00
  2.124567e+01    1.264401e+00
  2.135680e+01    1.286129e+00
  2.146793e+01    1.390183e+00
  2.157906e+01    1.588671e+00
  2.169019e+01    2.523614e+00
  2.180132e+01    5.907369e+00
  2.191245e+01    8.739982e+00
  2.202358e+01    3.635353e+00
  2.213471e+01    1.836362e+00
  2.224584e+01    1.398798e+00
  2.235696e+01    1.262104e+00
  2.246809e+01    1.160980e+00
  2.257922e+01    1.127657e+00
  2.269035e+01    1.072936e+00
  2.280148e+01    1.064360e+00
  2.291261e+01    1.035010e+00
  2.302374e+01    1.021473e+00
  2.313487e+01    9.988176e-01
  2.324600e+01    9.743991e-01
  2.335713e+01    9.856747e-01
  2.346825e+01    9.346128e-01
  2.357938e+01    9.526708e-01
  2.369051e+01    9.661077e-01
  2.380164e+01    9.233320e-01
  2.391277e+01    9.262710e-01
  2.402390e+01    9.039247e-01
  2.413503e+01    8.955848e-01
  2.424616e+01    8.734698e-01
  2.435729e+01    9.019992e-01
  2.446842e+01    8.721920e-01
  2.457954e+01    8.950670e-01
  2.469067e+01    8.905232e-01
  2.480180e+01    8.877081e-01
  2.491293e+01    8.911747e-01
  2.502406e+01    9.095219e-01
  2.513519e+01    9.141212e-01
  2.524632e+01    9.366528e-01
  2.535745e+01    1.000075e+00
  2.546858e+01    1.033971e+00
  2.557971e+01    1.163774e+00
  2.569083e+01    1.482365e+00
  2.580196e+01    2.827919e+00
  2.591309e+01    6.386487e+00
  2.602422e+01    5.263568e+00
  2.613535e+01    2.133163e+00
  2.624648e+01    1.352003e+00
  2.635761e+01    1.137486e+00
  2.646874e+01    1.034349e+00
  2.657987e+01    1.002451e+00
  2.669100e+01    9.798560e-01
  2.680212e+01    9.638476e-01
  2.691325e+01    1.008160e+00
  2.702438e+01    1.189772e+00
  2.713551e+01    1.725573e+00
  2.724664e+01    2.087651e+00
  2.735777e+01    1.271952e+00
  2.746890e+01    1.003978e+00
  2.758003e+01    9.283389e-01
  2.769116e+01    8.876098e-01
  2.780229e+01    8.954461e-01
  2.791342e+01    8.815939e-01
  2.802454e+01    8.553298e-01
  2.813567e+01    8.468708e-01
  2.824680e+01    8.355667e-01
  2.835793e+01    8.401803e-01
  2.846906e+01    8.413462e-01
  2.858019e+01    8.099934e-01
  2.869132e+01    8.364851e-01
  2.880245e+01    8.499786e-01
  2.891358e+01    8.466588e-01
  2.902471e+01    8.301113e-01
  2.913583e+01    8.032897e-01
  2.924696e+01    7.990810e-01
  2.935809e+01    8.067463e-01
  2.946922e+01    8.239189e-01
  2.958035e+01    7.840318e-01
  2.969148e+01    7.818719e-01
  2.980261e+01    7.999026e-01
  2.991374e+01    8.024240e-01
  3.002487e+01    8.018124e-01
  3.013600e+01    7.953773e-01
  3.024712e+01    7.703964e-01
  3.035825e+01    7.825170e-01
  3.046938e+01    7.924159e-01
  3.058051e+01    7.762455e-01
  3.069164e+01    7.883288e-01
  3.080277e+01    8.005263e-01
  3.091390e+01    7.686104e-01
  3.102503e+01    7.924189e-01
  3.113616e+01    7.884247e-01
  3.124729e+01    7.923081e-01
  3.135841e+01    8.060941e-01
  3.146954e+01    8.433098e-01
  3.158067e+01    8.719146e-01
  3.169180e+01    9.680332e-01
  3.180293e+01    1.485360e+00
  3.191406e+01    2.103548e+00
  3.202519e+01    1.337383e+00
  3.213632e+01    9.243089e-01
  3.224745e+01    8.246586e-01
  3.235858e+01    8.134052e-01
  3.246970e+01    8.029435e-01
  3.254908e+01    7.655079e-01