File: XRD/Reaction conditions/2024-07-27_003_Ru-CGO-ex_Reaction_dwell_000023_data_000061.dat
# == pyFAI calibration ==
# Distance Sample to Detector: 0.4 m
# PONI: 9.750e-02, 1.135e-01 m
# Rotations: -0.000175 0.000000 -0.000000 rad
#
# == Fit2d calibration ==
# Distance Sample-beamCenter: 400.000 mm
# Center: x=1514.000, y=1300.000 pix
# Tilt: 0.010 deg  TiltPlanRot: 0.010 deg
#
# Detector Detector	 Spline= None	 PixelSize= 7.500e-05, 7.500e-05 m
#    Detector has a mask: False
#    Detector has a dark current: False
#    detector has a flat field: False
#
# Wavelength: 6.888e-11 m
# Mask applied: user provided
# Dark current applied: False
# Flat field applied: False
# Polarization factor: 0.99
# Normalization factor: 1.0
# --> /home/myspot/data/2024_07_Rosario/Ru-CGO-ex/2024-07-27_003_Ru-CGO-ex_Reaction_dwell_000023_data_000061.dat
#       q_nm^-1             I
  2.003187e-02    0.000000e+00
  1.311609e-01    1.853034e-02
  2.422899e-01    4.807057e-02
  3.534189e-01    8.705746e-02
  4.645479e-01    2.756282e-02
  5.756770e-01    7.449108e-02
  6.868060e-01    5.930687e-02
  7.979350e-01    1.506760e-01
  9.090640e-01    5.028639e-01
  1.020193e+00    1.282109e+00
  1.131322e+00    1.621561e+00
  1.242451e+00    2.495080e+00
  1.353580e+00    2.857317e+00
  1.464709e+00    3.060854e+00
  1.575838e+00    3.305078e+00
  1.686967e+00    3.057904e+00
  1.798096e+00    3.166670e+00
  1.909225e+00    3.061110e+00
  2.020354e+00    3.047268e+00
  2.131483e+00    3.077435e+00
  2.242612e+00    3.164041e+00
  2.353741e+00    3.282128e+00
  2.464870e+00    3.107588e+00
  2.575999e+00    3.247494e+00
  2.687128e+00    3.248846e+00
  2.798257e+00    3.141955e+00
  2.909386e+00    3.231596e+00
  3.020515e+00    3.338914e+00
  3.131644e+00    3.278721e+00
  3.242773e+00    3.375687e+00
  3.353902e+00    3.456817e+00
  3.465031e+00    3.439714e+00
  3.576160e+00    3.405709e+00
  3.687289e+00    3.451945e+00
  3.798418e+00    3.508968e+00
  3.909547e+00    3.468926e+00
  4.020676e+00    3.431172e+00
  4.131806e+00    3.574390e+00
  4.242935e+00    3.579640e+00
  4.354064e+00    3.589995e+00
  4.465193e+00    3.534458e+00
  4.576322e+00    3.595786e+00
  4.687451e+00    3.622061e+00
  4.798580e+00    3.702509e+00
  4.909709e+00    3.565705e+00
  5.020838e+00    3.606367e+00
  5.131967e+00    3.694222e+00
  5.243096e+00    3.690146e+00
  5.354225e+00    3.651723e+00
  5.465354e+00    3.550926e+00
  5.576483e+00    3.591143e+00
  5.687612e+00    3.606184e+00
  5.798741e+00    3.620877e+00
  5.909870e+00    3.624288e+00
  6.020999e+00    3.575685e+00
  6.132128e+00    3.639862e+00
  6.243257e+00    3.526419e+00
  6.354386e+00    3.608884e+00
  6.465515e+00    3.470846e+00
  6.576644e+00    3.529612e+00
  6.687773e+00    3.518423e+00
  6.798902e+00    3.545865e+00
  6.910031e+00    3.507990e+00
  7.021160e+00    3.480196e+00
  7.132289e+00    3.597439e+00
  7.243418e+00    3.557378e+00
  7.354547e+00    3.524656e+00
  7.465676e+00    3.460713e+00
  7.576805e+00    3.528132e+00
  7.687934e+00    3.513322e+00
  7.799063e+00    3.472159e+00
  7.910192e+00    3.475739e+00
  8.021321e+00    3.405549e+00
  8.132450e+00    3.464734e+00
  8.243579e+00    3.477940e+00
  8.354708e+00    3.383307e+00
  8.465837e+00    3.345532e+00
  8.576966e+00    3.326622e+00
  8.688095e+00    3.243213e+00
  8.799224e+00    3.355723e+00
  8.910353e+00    3.272411e+00
  9.021482e+00    3.285252e+00
  9.132611e+00    3.234596e+00
  9.243740e+00    3.264664e+00
  9.354869e+00    3.200627e+00
  9.465998e+00    3.245508e+00
  9.577127e+00    3.252488e+00
  9.688256e+00    3.217067e+00
  9.799385e+00    3.145460e+00
  9.910514e+00    3.115314e+00
  1.002164e+01    3.146759e+00
  1.013277e+01    3.085728e+00
  1.024390e+01    3.051081e+00
  1.035503e+01    3.068521e+00
  1.046616e+01    3.033983e+00
  1.057729e+01    3.004348e+00
  1.068842e+01    2.945321e+00
  1.079955e+01    2.935505e+00
  1.091068e+01    2.918885e+00
  1.102180e+01    2.915022e+00
  1.113293e+01    2.907528e+00
  1.124406e+01    2.874274e+00
  1.135519e+01    2.827615e+00
  1.146632e+01    2.842024e+00
  1.157745e+01    2.819282e+00
  1.168858e+01    2.737391e+00
  1.179971e+01    2.747934e+00
  1.191084e+01    2.731244e+00
  1.202197e+01    2.722841e+00
  1.213309e+01    2.699565e+00
  1.224422e+01    2.713166e+00
  1.235535e+01    2.700117e+00
  1.246648e+01    2.708036e+00
  1.257761e+01    2.740593e+00
  1.268874e+01    2.840618e+00
  1.279987e+01    3.002990e+00
  1.291100e+01    3.692539e+00
  1.302213e+01    6.744713e+00
  1.313326e+01    1.480237e+01
  1.324438e+01    1.072682e+01
  1.335551e+01    4.404964e+00
  1.346664e+01    3.082797e+00
  1.357777e+01    2.721424e+00
  1.368890e+01    2.570403e+00
  1.380003e+01    2.485465e+00
  1.391116e+01    2.422062e+00
  1.402229e+01    2.362732e+00
  1.413342e+01    2.329191e+00
  1.424455e+01    2.300969e+00
  1.435568e+01    2.233877e+00
  1.446680e+01    2.265954e+00
  1.457793e+01    2.241117e+00
  1.468906e+01    2.207160e+00
  1.480019e+01    2.180053e+00
  1.491132e+01    2.256699e+00
  1.502245e+01    2.476156e+00
  1.513358e+01    3.777877e+00
  1.524471e+01    5.799427e+00
  1.535584e+01    3.743584e+00
  1.546697e+01    2.450336e+00
  1.557809e+01    2.089452e+00
  1.568922e+01    2.004915e+00
  1.580035e+01    1.971879e+00
  1.591148e+01    1.882468e+00
  1.602261e+01    1.881781e+00
  1.613374e+01    1.809274e+00
  1.624487e+01    1.838800e+00
  1.635600e+01    1.817320e+00
  1.646713e+01    1.776494e+00
  1.657826e+01    1.763378e+00
  1.668938e+01    1.699521e+00
  1.680051e+01    1.712669e+00
  1.691164e+01    1.669343e+00
  1.702277e+01    1.648961e+00
  1.713390e+01    1.653390e+00
  1.724503e+01    1.606370e+00
  1.735616e+01    1.650208e+00
  1.746729e+01    1.610103e+00
  1.757842e+01    1.582434e+00
  1.768955e+01    1.554631e+00
  1.780067e+01    1.551306e+00
  1.791180e+01    1.550636e+00
  1.802293e+01    1.518755e+00
  1.813406e+01    1.481125e+00
  1.824519e+01    1.471257e+00
  1.835632e+01    1.471299e+00
  1.846745e+01    1.411688e+00
  1.857858e+01    1.451755e+00
  1.868971e+01    1.426899e+00
  1.880084e+01    1.409608e+00
  1.891196e+01    1.391369e+00
  1.902309e+01    1.387975e+00
  1.913422e+01    1.387679e+00
  1.924535e+01    1.336236e+00
  1.935648e+01    1.373643e+00
  1.946761e+01    1.343194e+00
  1.957874e+01    1.341913e+00
  1.968987e+01    1.315945e+00
  1.980100e+01    1.314011e+00
  1.991213e+01    1.289670e+00
  2.002325e+01    1.280567e+00
  2.013438e+01    1.270758e+00
  2.024551e+01    1.257654e+00
  2.035664e+01    1.245301e+00
  2.046777e+01    1.236813e+00
  2.057890e+01    1.226379e+00
  2.069003e+01    1.242613e+00
  2.080116e+01    1.223764e+00
  2.091229e+01    1.236250e+00
  2.102342e+01    1.241708e+00
  2.113455e+01    1.252771e+00
  2.124567e+01    1.241627e+00
  2.135680e+01    1.275738e+00
  2.146793e+01    1.354702e+00
  2.157906e+01    1.607860e+00
  2.169019e+01    2.544847e+00
  2.180132e+01    5.836502e+00
  2.191245e+01    8.702456e+00
  2.202358e+01    3.652565e+00
  2.213471e+01    1.878720e+00
  2.224584e+01    1.435552e+00
  2.235696e+01    1.220796e+00
  2.246809e+01    1.166752e+00
  2.257922e+01    1.106929e+00
  2.269035e+01    1.100234e+00
  2.280148e+01    1.038121e+00
  2.291261e+01    1.043159e+00
  2.302374e+01    9.975042e-01
  2.313487e+01    1.011741e+00
  2.324600e+01    9.843335e-01
  2.335713e+01    9.692674e-01
  2.346825e+01    9.471498e-01
  2.357938e+01    9.771324e-01
  2.369051e+01    9.243863e-01
  2.380164e+01    9.114348e-01
  2.391277e+01    9.007444e-01
  2.402390e+01    9.097319e-01
  2.413503e+01    8.811542e-01
  2.424616e+01    9.057088e-01
  2.435729e+01    8.704674e-01
  2.446842e+01    9.008701e-01
  2.457954e+01    8.895605e-01
  2.469067e+01    8.704806e-01
  2.480180e+01    8.961856e-01
  2.491293e+01    8.571367e-01
  2.502406e+01    8.882214e-01
  2.513519e+01    9.007989e-01
  2.524632e+01    9.268634e-01
  2.535745e+01    9.708800e-01
  2.546858e+01    1.037683e+00
  2.557971e+01    1.151817e+00
  2.569083e+01    1.495873e+00
  2.580196e+01    2.821744e+00
  2.591309e+01    6.427815e+00
  2.602422e+01    5.284000e+00
  2.613535e+01    2.135254e+00
  2.624648e+01    1.366318e+00
  2.635761e+01    1.099912e+00
  2.646874e+01    1.019087e+00
  2.657987e+01    9.842635e-01
  2.669100e+01    9.781234e-01
  2.680212e+01    9.600450e-01
  2.691325e+01    1.008028e+00
  2.702438e+01    1.121933e+00
  2.713551e+01    1.722700e+00
  2.724664e+01    2.105462e+00
  2.735777e+01    1.283640e+00
  2.746890e+01    1.019040e+00
  2.758003e+01    9.380683e-01
  2.769116e+01    8.822765e-01
  2.780229e+01    8.873727e-01
  2.791342e+01    8.632708e-01
  2.802454e+01    8.668681e-01
  2.813567e+01    8.514625e-01
  2.824680e+01    8.432782e-01
  2.835793e+01    8.474997e-01
  2.846906e+01    8.403528e-01
  2.858019e+01    8.395333e-01
  2.869132e+01    8.490961e-01
  2.880245e+01    8.234121e-01
  2.891358e+01    8.128795e-01
  2.902471e+01    7.990887e-01
  2.913583e+01    7.936710e-01
  2.924696e+01    8.093673e-01
  2.935809e+01    7.824410e-01
  2.946922e+01    7.973339e-01
  2.958035e+01    8.006825e-01
  2.969148e+01    8.167711e-01
  2.980261e+01    7.968369e-01
  2.991374e+01    8.150166e-01
  3.002487e+01    8.319401e-01
  3.013600e+01    8.078806e-01
  3.024712e+01    7.957670e-01
  3.035825e+01    7.889174e-01
  3.046938e+01    7.882974e-01
  3.058051e+01    7.949563e-01
  3.069164e+01    7.859088e-01
  3.080277e+01    7.819191e-01
  3.091390e+01    8.042921e-01
  3.102503e+01    8.097339e-01
  3.113616e+01    7.836990e-01
  3.124729e+01    7.917047e-01
  3.135841e+01    8.121127e-01
  3.146954e+01    8.256800e-01
  3.158067e+01    8.539679e-01
  3.169180e+01    1.003050e+00
  3.180293e+01    1.484345e+00
  3.191406e+01    2.114940e+00
  3.202519e+01    1.324233e+00
  3.213632e+01    9.587585e-01
  3.224745e+01    8.125507e-01
  3.235858e+01    7.880954e-01
  3.246970e+01    7.944933e-01
  3.254908e+01    7.839768e-01