File: XRD/Reaction conditions/2024-07-27_003_Ru-CGO-ex_Reaction_dwell_000023_data_000119.dat
# == pyFAI calibration ==
# Distance Sample to Detector: 0.4 m
# PONI: 9.750e-02, 1.135e-01 m
# Rotations: -0.000175 0.000000 -0.000000 rad
#
# == Fit2d calibration ==
# Distance Sample-beamCenter: 400.000 mm
# Center: x=1514.000, y=1300.000 pix
# Tilt: 0.010 deg  TiltPlanRot: 0.010 deg
#
# Detector Detector	 Spline= None	 PixelSize= 7.500e-05, 7.500e-05 m
#    Detector has a mask: False
#    Detector has a dark current: False
#    detector has a flat field: False
#
# Wavelength: 6.888e-11 m
# Mask applied: user provided
# Dark current applied: False
# Flat field applied: False
# Polarization factor: 0.99
# Normalization factor: 1.0
# --> /home/myspot/data/2024_07_Rosario/Ru-CGO-ex/2024-07-27_003_Ru-CGO-ex_Reaction_dwell_000023_data_000119.dat
#       q_nm^-1             I
  2.003187e-02    1.542422e-01
  1.311609e-01    9.647235e-02
  2.422899e-01    6.416380e-02
  3.534189e-01    3.582152e-02
  4.645479e-01    4.573776e-02
  5.756770e-01    4.543555e-02
  6.868060e-01    3.006322e-02
  7.979350e-01    1.446285e-01
  9.090640e-01    6.863545e-01
  1.020193e+00    1.287462e+00
  1.131322e+00    1.539162e+00
  1.242451e+00    2.276790e+00
  1.353580e+00    2.636184e+00
  1.464709e+00    2.980665e+00
  1.575838e+00    3.195005e+00
  1.686967e+00    3.034823e+00
  1.798096e+00    3.069205e+00
  1.909225e+00    2.941760e+00
  2.020354e+00    3.019164e+00
  2.131483e+00    3.143014e+00
  2.242612e+00    3.145804e+00
  2.353741e+00    3.118644e+00
  2.464870e+00    3.216115e+00
  2.575999e+00    3.263074e+00
  2.687128e+00    3.378558e+00
  2.798257e+00    3.232756e+00
  2.909386e+00    3.445147e+00
  3.020515e+00    3.385981e+00
  3.131644e+00    3.315003e+00
  3.242773e+00    3.397666e+00
  3.353902e+00    3.402484e+00
  3.465031e+00    3.516793e+00
  3.576160e+00    3.446793e+00
  3.687289e+00    3.534389e+00
  3.798418e+00    3.498017e+00
  3.909547e+00    3.606432e+00
  4.020676e+00    3.428721e+00
  4.131806e+00    3.475991e+00
  4.242935e+00    3.602870e+00
  4.354064e+00    3.661619e+00
  4.465193e+00    3.609602e+00
  4.576322e+00    3.677443e+00
  4.687451e+00    3.611059e+00
  4.798580e+00    3.554786e+00
  4.909709e+00    3.675043e+00
  5.020838e+00    3.686366e+00
  5.131967e+00    3.613890e+00
  5.243096e+00    3.575934e+00
  5.354225e+00    3.645191e+00
  5.465354e+00    3.616979e+00
  5.576483e+00    3.474652e+00
  5.687612e+00    3.593293e+00
  5.798741e+00    3.570190e+00
  5.909870e+00    3.615379e+00
  6.020999e+00    3.553119e+00
  6.132128e+00    3.615163e+00
  6.243257e+00    3.573510e+00
  6.354386e+00    3.527190e+00
  6.465515e+00    3.589611e+00
  6.576644e+00    3.558218e+00
  6.687773e+00    3.599183e+00
  6.798902e+00    3.605664e+00
  6.910031e+00    3.483884e+00
  7.021160e+00    3.469851e+00
  7.132289e+00    3.529659e+00
  7.243418e+00    3.566642e+00
  7.354547e+00    3.454792e+00
  7.465676e+00    3.473871e+00
  7.576805e+00    3.458803e+00
  7.687934e+00    3.471605e+00
  7.799063e+00    3.483156e+00
  7.910192e+00    3.495157e+00
  8.021321e+00    3.404564e+00
  8.132450e+00    3.446445e+00
  8.243579e+00    3.450961e+00
  8.354708e+00    3.437045e+00
  8.465837e+00    3.353470e+00
  8.576966e+00    3.302186e+00
  8.688095e+00    3.319385e+00
  8.799224e+00    3.260424e+00
  8.910353e+00    3.298158e+00
  9.021482e+00    3.239759e+00
  9.132611e+00    3.223526e+00
  9.243740e+00    3.235976e+00
  9.354869e+00    3.265910e+00
  9.465998e+00    3.188549e+00
  9.577127e+00    3.214273e+00
  9.688256e+00    3.131846e+00
  9.799385e+00    3.135643e+00
  9.910514e+00    3.110059e+00
  1.002164e+01    3.107525e+00
  1.013277e+01    3.114798e+00
  1.024390e+01    3.041521e+00
  1.035503e+01    3.058050e+00
  1.046616e+01    3.070029e+00
  1.057729e+01    2.965042e+00
  1.068842e+01    2.982132e+00
  1.079955e+01    2.937761e+00
  1.091068e+01    2.944597e+00
  1.102180e+01    2.914611e+00
  1.113293e+01    2.902578e+00
  1.124406e+01    2.836538e+00
  1.135519e+01    2.863163e+00
  1.146632e+01    2.761665e+00
  1.157745e+01    2.809600e+00
  1.168858e+01    2.816232e+00
  1.179971e+01    2.718906e+00
  1.191084e+01    2.717275e+00
  1.202197e+01    2.695609e+00
  1.213309e+01    2.687423e+00
  1.224422e+01    2.707568e+00
  1.235535e+01    2.725948e+00
  1.246648e+01    2.678855e+00
  1.257761e+01    2.763615e+00
  1.268874e+01    2.823826e+00
  1.279987e+01    2.986509e+00
  1.291100e+01    3.654674e+00
  1.302213e+01    6.784742e+00
  1.313326e+01    1.487675e+01
  1.324438e+01    1.068270e+01
  1.335551e+01    4.444936e+00
  1.346664e+01    3.156405e+00
  1.357777e+01    2.722376e+00
  1.368890e+01    2.575061e+00
  1.380003e+01    2.438680e+00
  1.391116e+01    2.380247e+00
  1.402229e+01    2.361947e+00
  1.413342e+01    2.303067e+00
  1.424455e+01    2.244321e+00
  1.435568e+01    2.269552e+00
  1.446680e+01    2.223574e+00
  1.457793e+01    2.192236e+00
  1.468906e+01    2.214289e+00
  1.480019e+01    2.226586e+00
  1.491132e+01    2.240061e+00
  1.502245e+01    2.528052e+00
  1.513358e+01    3.868885e+00
  1.524471e+01    5.729209e+00
  1.535584e+01    3.756129e+00
  1.546697e+01    2.458118e+00
  1.557809e+01    2.119581e+00
  1.568922e+01    1.985348e+00
  1.580035e+01    1.910778e+00
  1.591148e+01    1.902816e+00
  1.602261e+01    1.847988e+00
  1.613374e+01    1.845026e+00
  1.624487e+01    1.826193e+00
  1.635600e+01    1.784156e+00
  1.646713e+01    1.762487e+00
  1.657826e+01    1.720408e+00
  1.668938e+01    1.727423e+00
  1.680051e+01    1.692320e+00
  1.691164e+01    1.669407e+00
  1.702277e+01    1.662422e+00
  1.713390e+01    1.618733e+00
  1.724503e+01    1.616699e+00
  1.735616e+01    1.607407e+00
  1.746729e+01    1.613493e+00
  1.757842e+01    1.559070e+00
  1.768955e+01    1.566422e+00
  1.780067e+01    1.543505e+00
  1.791180e+01    1.519430e+00
  1.802293e+01    1.499233e+00
  1.813406e+01    1.456833e+00
  1.824519e+01    1.466835e+00
  1.835632e+01    1.452054e+00
  1.846745e+01    1.433098e+00
  1.857858e+01    1.451330e+00
  1.868971e+01    1.417070e+00
  1.880084e+01    1.426306e+00
  1.891196e+01    1.385602e+00
  1.902309e+01    1.373628e+00
  1.913422e+01    1.363496e+00
  1.924535e+01    1.368165e+00
  1.935648e+01    1.359713e+00
  1.946761e+01    1.350242e+00
  1.957874e+01    1.318879e+00
  1.968987e+01    1.322802e+00
  1.980100e+01    1.304430e+00
  1.991213e+01    1.287887e+00
  2.002325e+01    1.279792e+00
  2.013438e+01    1.244264e+00
  2.024551e+01    1.259521e+00
  2.035664e+01    1.220609e+00
  2.046777e+01    1.273674e+00
  2.057890e+01    1.218593e+00
  2.069003e+01    1.236316e+00
  2.080116e+01    1.223725e+00
  2.091229e+01    1.218039e+00
  2.102342e+01    1.224045e+00
  2.113455e+01    1.251042e+00
  2.124567e+01    1.221972e+00
  2.135680e+01    1.285865e+00
  2.146793e+01    1.363416e+00
  2.157906e+01    1.624802e+00
  2.169019e+01    2.509370e+00
  2.180132e+01    5.851902e+00
  2.191245e+01    8.797423e+00
  2.202358e+01    3.586012e+00
  2.213471e+01    1.860264e+00
  2.224584e+01    1.408436e+00
  2.235696e+01    1.227797e+00
  2.246809e+01    1.153098e+00
  2.257922e+01    1.094860e+00
  2.269035e+01    1.103477e+00
  2.280148e+01    1.047137e+00
  2.291261e+01    1.011877e+00
  2.302374e+01    1.036355e+00
  2.313487e+01    9.916892e-01
  2.324600e+01    9.872320e-01
  2.335713e+01    9.861289e-01
  2.346825e+01    9.671938e-01
  2.357938e+01    9.672966e-01
  2.369051e+01    9.560564e-01
  2.380164e+01    9.154582e-01
  2.391277e+01    8.932456e-01
  2.402390e+01    8.914236e-01
  2.413503e+01    8.547933e-01
  2.424616e+01    8.980373e-01
  2.435729e+01    9.023594e-01
  2.446842e+01    8.737485e-01
  2.457954e+01    8.736055e-01
  2.469067e+01    8.969985e-01
  2.480180e+01    8.925436e-01
  2.491293e+01    8.849999e-01
  2.502406e+01    8.870215e-01
  2.513519e+01    8.918000e-01
  2.524632e+01    9.254568e-01
  2.535745e+01    9.598037e-01
  2.546858e+01    1.016092e+00
  2.557971e+01    1.146227e+00
  2.569083e+01    1.526597e+00
  2.580196e+01    2.855377e+00
  2.591309e+01    6.451208e+00
  2.602422e+01    5.292564e+00
  2.613535e+01    2.139365e+00
  2.624648e+01    1.328714e+00
  2.635761e+01    1.097944e+00
  2.646874e+01    1.015854e+00
  2.657987e+01    9.836484e-01
  2.669100e+01    9.874688e-01
  2.680212e+01    9.776438e-01
  2.691325e+01    9.747052e-01
  2.702438e+01    1.158910e+00
  2.713551e+01    1.747863e+00
  2.724664e+01    2.087493e+00
  2.735777e+01    1.270377e+00
  2.746890e+01    1.022398e+00
  2.758003e+01    9.517878e-01
  2.769116e+01    8.942773e-01
  2.780229e+01    8.691365e-01
  2.791342e+01    8.956750e-01
  2.802454e+01    8.737535e-01
  2.813567e+01    8.575383e-01
  2.824680e+01    8.447688e-01
  2.835793e+01    8.364066e-01
  2.846906e+01    8.483046e-01
  2.858019e+01    8.684075e-01
  2.869132e+01    8.274907e-01
  2.880245e+01    8.140142e-01
  2.891358e+01    8.358997e-01
  2.902471e+01    8.400164e-01
  2.913583e+01    8.240017e-01
  2.924696e+01    8.144187e-01
  2.935809e+01    8.227367e-01
  2.946922e+01    7.996681e-01
  2.958035e+01    8.123441e-01
  2.969148e+01    8.163299e-01
  2.980261e+01    7.845225e-01
  2.991374e+01    8.137106e-01
  3.002487e+01    8.033420e-01
  3.013600e+01    7.852880e-01
  3.024712e+01    7.776627e-01
  3.035825e+01    8.060141e-01
  3.046938e+01    7.832122e-01
  3.058051e+01    7.706605e-01
  3.069164e+01    7.796822e-01
  3.080277e+01    7.654817e-01
  3.091390e+01    7.893941e-01
  3.102503e+01    7.795647e-01
  3.113616e+01    7.861025e-01
  3.124729e+01    7.844704e-01
  3.135841e+01    8.023499e-01
  3.146954e+01    8.231820e-01
  3.158067e+01    8.712761e-01
  3.169180e+01    9.845164e-01
  3.180293e+01    1.457305e+00
  3.191406e+01    2.089971e+00
  3.202519e+01    1.309661e+00
  3.213632e+01    9.537708e-01
  3.224745e+01    8.317314e-01
  3.235858e+01    7.913951e-01
  3.246970e+01    7.821818e-01
  3.254908e+01    7.780892e-01