File: XRD/Reaction conditions/2024-07-27_003_Ru-CGO-ex_Reaction_dwell_000023_data_000098.dat
# == pyFAI calibration ==
# Distance Sample to Detector: 0.4 m
# PONI: 9.750e-02, 1.135e-01 m
# Rotations: -0.000175 0.000000 -0.000000 rad
#
# == Fit2d calibration ==
# Distance Sample-beamCenter: 400.000 mm
# Center: x=1514.000, y=1300.000 pix
# Tilt: 0.010 deg  TiltPlanRot: 0.010 deg
#
# Detector Detector	 Spline= None	 PixelSize= 7.500e-05, 7.500e-05 m
#    Detector has a mask: False
#    Detector has a dark current: False
#    detector has a flat field: False
#
# Wavelength: 6.888e-11 m
# Mask applied: user provided
# Dark current applied: False
# Flat field applied: False
# Polarization factor: 0.99
# Normalization factor: 1.0
# --> /home/myspot/data/2024_07_Rosario/Ru-CGO-ex/2024-07-27_003_Ru-CGO-ex_Reaction_dwell_000023_data_000098.dat
#       q_nm^-1             I
  2.003187e-02    0.000000e+00
  1.311609e-01    4.444229e-02
  2.422899e-01    4.948013e-02
  3.534189e-01    2.446596e-02
  4.645479e-01    3.478895e-02
  5.756770e-01    4.102192e-02
  6.868060e-01    5.608593e-02
  7.979350e-01    1.507209e-01
  9.090640e-01    6.714201e-01
  1.020193e+00    1.262218e+00
  1.131322e+00    1.685111e+00
  1.242451e+00    2.391521e+00
  1.353580e+00    2.739100e+00
  1.464709e+00    2.958278e+00
  1.575838e+00    3.125344e+00
  1.686967e+00    3.041400e+00
  1.798096e+00    3.160252e+00
  1.909225e+00    2.981349e+00
  2.020354e+00    3.047414e+00
  2.131483e+00    3.114497e+00
  2.242612e+00    3.139886e+00
  2.353741e+00    3.128079e+00
  2.464870e+00    3.086360e+00
  2.575999e+00    3.285582e+00
  2.687128e+00    3.218499e+00
  2.798257e+00    3.178023e+00
  2.909386e+00    3.417040e+00
  3.020515e+00    3.340973e+00
  3.131644e+00    3.340116e+00
  3.242773e+00    3.398252e+00
  3.353902e+00    3.456206e+00
  3.465031e+00    3.348151e+00
  3.576160e+00    3.530036e+00
  3.687289e+00    3.496558e+00
  3.798418e+00    3.495893e+00
  3.909547e+00    3.632404e+00
  4.020676e+00    3.472176e+00
  4.131806e+00    3.601869e+00
  4.242935e+00    3.504517e+00
  4.354064e+00    3.577898e+00
  4.465193e+00    3.631621e+00
  4.576322e+00    3.519935e+00
  4.687451e+00    3.671330e+00
  4.798580e+00    3.666497e+00
  4.909709e+00    3.689514e+00
  5.020838e+00    3.679748e+00
  5.131967e+00    3.671725e+00
  5.243096e+00    3.684629e+00
  5.354225e+00    3.702214e+00
  5.465354e+00    3.701919e+00
  5.576483e+00    3.580550e+00
  5.687612e+00    3.656251e+00
  5.798741e+00    3.486361e+00
  5.909870e+00    3.643905e+00
  6.020999e+00    3.562023e+00
  6.132128e+00    3.546614e+00
  6.243257e+00    3.614424e+00
  6.354386e+00    3.508579e+00
  6.465515e+00    3.538376e+00
  6.576644e+00    3.523015e+00
  6.687773e+00    3.602070e+00
  6.798902e+00    3.496312e+00
  6.910031e+00    3.538224e+00
  7.021160e+00    3.484250e+00
  7.132289e+00    3.526540e+00
  7.243418e+00    3.485063e+00
  7.354547e+00    3.494733e+00
  7.465676e+00    3.472713e+00
  7.576805e+00    3.430234e+00
  7.687934e+00    3.432869e+00
  7.799063e+00    3.427287e+00
  7.910192e+00    3.437715e+00
  8.021321e+00    3.450624e+00
  8.132450e+00    3.406581e+00
  8.243579e+00    3.489141e+00
  8.354708e+00    3.478616e+00
  8.465837e+00    3.366383e+00
  8.576966e+00    3.375956e+00
  8.688095e+00    3.369499e+00
  8.799224e+00    3.327537e+00
  8.910353e+00    3.338917e+00
  9.021482e+00    3.292607e+00
  9.132611e+00    3.261631e+00
  9.243740e+00    3.279133e+00
  9.354869e+00    3.242093e+00
  9.465998e+00    3.208785e+00
  9.577127e+00    3.211935e+00
  9.688256e+00    3.190593e+00
  9.799385e+00    3.103547e+00
  9.910514e+00    3.140449e+00
  1.002164e+01    3.085273e+00
  1.013277e+01    3.096577e+00
  1.024390e+01    3.112978e+00
  1.035503e+01    3.030207e+00
  1.046616e+01    3.032851e+00
  1.057729e+01    2.991874e+00
  1.068842e+01    2.948431e+00
  1.079955e+01    2.916850e+00
  1.091068e+01    2.938720e+00
  1.102180e+01    2.847775e+00
  1.113293e+01    2.925401e+00
  1.124406e+01    2.884979e+00
  1.135519e+01    2.759592e+00
  1.146632e+01    2.820868e+00
  1.157745e+01    2.803166e+00
  1.168858e+01    2.776958e+00
  1.179971e+01    2.722679e+00
  1.191084e+01    2.763276e+00
  1.202197e+01    2.674033e+00
  1.213309e+01    2.711669e+00
  1.224422e+01    2.709598e+00
  1.235535e+01    2.687854e+00
  1.246648e+01    2.700040e+00
  1.257761e+01    2.717159e+00
  1.268874e+01    2.820212e+00
  1.279987e+01    2.982130e+00
  1.291100e+01    3.648206e+00
  1.302213e+01    6.711873e+00
  1.313326e+01    1.472646e+01
  1.324438e+01    1.070870e+01
  1.335551e+01    4.423424e+00
  1.346664e+01    3.124353e+00
  1.357777e+01    2.750015e+00
  1.368890e+01    2.546572e+00
  1.380003e+01    2.508111e+00
  1.391116e+01    2.429069e+00
  1.402229e+01    2.318444e+00
  1.413342e+01    2.328290e+00
  1.424455e+01    2.265629e+00
  1.435568e+01    2.290070e+00
  1.446680e+01    2.232422e+00
  1.457793e+01    2.247879e+00
  1.468906e+01    2.196176e+00
  1.480019e+01    2.199456e+00
  1.491132e+01    2.253438e+00
  1.502245e+01    2.499009e+00
  1.513358e+01    3.740442e+00
  1.524471e+01    5.810593e+00
  1.535584e+01    3.737756e+00
  1.546697e+01    2.451498e+00
  1.557809e+01    2.102977e+00
  1.568922e+01    2.018752e+00
  1.580035e+01    1.931570e+00
  1.591148e+01    1.909630e+00
  1.602261e+01    1.879578e+00
  1.613374e+01    1.828383e+00
  1.624487e+01    1.814490e+00
  1.635600e+01    1.790489e+00
  1.646713e+01    1.798667e+00
  1.657826e+01    1.761887e+00
  1.668938e+01    1.749308e+00
  1.680051e+01    1.701835e+00
  1.691164e+01    1.679160e+00
  1.702277e+01    1.657841e+00
  1.713390e+01    1.661604e+00
  1.724503e+01    1.609494e+00
  1.735616e+01    1.626544e+00
  1.746729e+01    1.595003e+00
  1.757842e+01    1.569326e+00
  1.768955e+01    1.587795e+00
  1.780067e+01    1.547758e+00
  1.791180e+01    1.519319e+00
  1.802293e+01    1.516645e+00
  1.813406e+01    1.507157e+00
  1.824519e+01    1.462577e+00
  1.835632e+01    1.472245e+00
  1.846745e+01    1.456056e+00
  1.857858e+01    1.432169e+00
  1.868971e+01    1.440015e+00
  1.880084e+01    1.423312e+00
  1.891196e+01    1.405722e+00
  1.902309e+01    1.369383e+00
  1.913422e+01    1.363562e+00
  1.924535e+01    1.354633e+00
  1.935648e+01    1.334381e+00
  1.946761e+01    1.335857e+00
  1.957874e+01    1.319520e+00
  1.968987e+01    1.324331e+00
  1.980100e+01    1.288961e+00
  1.991213e+01    1.304822e+00
  2.002325e+01    1.282634e+00
  2.013438e+01    1.276279e+00
  2.024551e+01    1.271510e+00
  2.035664e+01    1.225914e+00
  2.046777e+01    1.227256e+00
  2.057890e+01    1.219730e+00
  2.069003e+01    1.212384e+00
  2.080116e+01    1.210687e+00
  2.091229e+01    1.243572e+00
  2.102342e+01    1.209265e+00
  2.113455e+01    1.232442e+00
  2.124567e+01    1.254467e+00
  2.135680e+01    1.283354e+00
  2.146793e+01    1.382218e+00
  2.157906e+01    1.593470e+00
  2.169019e+01    2.493907e+00
  2.180132e+01    5.786500e+00
  2.191245e+01    8.814013e+00
  2.202358e+01    3.621527e+00
  2.213471e+01    1.872322e+00
  2.224584e+01    1.418402e+00
  2.235696e+01    1.249639e+00
  2.246809e+01    1.161180e+00
  2.257922e+01    1.105714e+00
  2.269035e+01    1.089947e+00
  2.280148e+01    1.046514e+00
  2.291261e+01    1.039090e+00
  2.302374e+01    1.021950e+00
  2.313487e+01    1.014852e+00
  2.324600e+01    9.877319e-01
  2.335713e+01    9.735025e-01
  2.346825e+01    9.763314e-01
  2.357938e+01    9.579718e-01
  2.369051e+01    9.631897e-01
  2.380164e+01    9.257419e-01
  2.391277e+01    9.125009e-01
  2.402390e+01    9.072238e-01
  2.413503e+01    8.655914e-01
  2.424616e+01    8.805570e-01
  2.435729e+01    8.868631e-01
  2.446842e+01    8.929113e-01
  2.457954e+01    8.879232e-01
  2.469067e+01    8.759678e-01
  2.480180e+01    8.934951e-01
  2.491293e+01    8.890804e-01
  2.502406e+01    8.912909e-01
  2.513519e+01    9.262451e-01
  2.524632e+01    9.271092e-01
  2.535745e+01    9.543365e-01
  2.546858e+01    1.022137e+00
  2.557971e+01    1.140968e+00
  2.569083e+01    1.488704e+00
  2.580196e+01    2.730117e+00
  2.591309e+01    6.294757e+00
  2.602422e+01    5.349717e+00
  2.613535e+01    2.154155e+00
  2.624648e+01    1.369184e+00
  2.635761e+01    1.102306e+00
  2.646874e+01    1.031561e+00
  2.657987e+01    9.834515e-01
  2.669100e+01    9.750830e-01
  2.680212e+01    9.785576e-01
  2.691325e+01    1.023752e+00
  2.702438e+01    1.166985e+00
  2.713551e+01    1.718067e+00
  2.724664e+01    2.083375e+00
  2.735777e+01    1.287932e+00
  2.746890e+01    1.023755e+00
  2.758003e+01    9.436433e-01
  2.769116e+01    9.295673e-01
  2.780229e+01    8.795083e-01
  2.791342e+01    8.740324e-01
  2.802454e+01    8.698359e-01
  2.813567e+01    8.556342e-01
  2.824680e+01    8.546078e-01
  2.835793e+01    8.559431e-01
  2.846906e+01    8.300962e-01
  2.858019e+01    8.235018e-01
  2.869132e+01    8.324357e-01
  2.880245e+01    8.099625e-01
  2.891358e+01    8.178385e-01
  2.902471e+01    8.181334e-01
  2.913583e+01    7.814820e-01
  2.924696e+01    8.272321e-01
  2.935809e+01    8.183397e-01
  2.946922e+01    8.069351e-01
  2.958035e+01    7.826605e-01
  2.969148e+01    8.033727e-01
  2.980261e+01    7.833995e-01
  2.991374e+01    8.021885e-01
  3.002487e+01    8.041392e-01
  3.013600e+01    8.034892e-01
  3.024712e+01    7.838668e-01
  3.035825e+01    7.878520e-01
  3.046938e+01    7.703366e-01
  3.058051e+01    7.829762e-01
  3.069164e+01    7.735515e-01
  3.080277e+01    7.644861e-01
  3.091390e+01    7.924069e-01
  3.102503e+01    7.856024e-01
  3.113616e+01    7.749850e-01
  3.124729e+01    8.021656e-01
  3.135841e+01    8.031433e-01
  3.146954e+01    8.292004e-01
  3.158067e+01    8.601587e-01
  3.169180e+01    9.930383e-01
  3.180293e+01    1.436916e+00
  3.191406e+01    2.078753e+00
  3.202519e+01    1.341430e+00
  3.213632e+01    9.278037e-01
  3.224745e+01    8.456284e-01
  3.235858e+01    7.915812e-01
  3.246970e+01    7.867382e-01
  3.254908e+01    7.715911e-01