File: XRD/Reaction conditions/2024-07-27_003_Ru-CGO-ex_Reaction_dwell_000023_data_000097.dat
# == pyFAI calibration ==
# Distance Sample to Detector: 0.4 m
# PONI: 9.750e-02, 1.135e-01 m
# Rotations: -0.000175 0.000000 -0.000000 rad
#
# == Fit2d calibration ==
# Distance Sample-beamCenter: 400.000 mm
# Center: x=1514.000, y=1300.000 pix
# Tilt: 0.010 deg  TiltPlanRot: 0.010 deg
#
# Detector Detector	 Spline= None	 PixelSize= 7.500e-05, 7.500e-05 m
#    Detector has a mask: False
#    Detector has a dark current: False
#    detector has a flat field: False
#
# Wavelength: 6.888e-11 m
# Mask applied: user provided
# Dark current applied: False
# Flat field applied: False
# Polarization factor: 0.99
# Normalization factor: 1.0
# --> /home/myspot/data/2024_07_Rosario/Ru-CGO-ex/2024-07-27_003_Ru-CGO-ex_Reaction_dwell_000023_data_000097.dat
#       q_nm^-1             I
  2.003187e-02    0.000000e+00
  1.311609e-01    1.990338e-02
  2.422899e-01    6.294537e-02
  3.534189e-01    2.981986e-02
  4.645479e-01    5.923270e-02
  5.756770e-01    2.626795e-02
  6.868060e-01    4.971660e-02
  7.979350e-01    1.942026e-01
  9.090640e-01    7.524409e-01
  1.020193e+00    1.262182e+00
  1.131322e+00    1.689020e+00
  1.242451e+00    2.349100e+00
  1.353580e+00    2.615589e+00
  1.464709e+00    3.079743e+00
  1.575838e+00    3.312456e+00
  1.686967e+00    2.974155e+00
  1.798096e+00    3.000873e+00
  1.909225e+00    2.972971e+00
  2.020354e+00    3.132400e+00
  2.131483e+00    3.070765e+00
  2.242612e+00    3.090490e+00
  2.353741e+00    3.187196e+00
  2.464870e+00    3.133788e+00
  2.575999e+00    3.210768e+00
  2.687128e+00    3.182948e+00
  2.798257e+00    3.346198e+00
  2.909386e+00    3.320152e+00
  3.020515e+00    3.398067e+00
  3.131644e+00    3.372391e+00
  3.242773e+00    3.482083e+00
  3.353902e+00    3.364422e+00
  3.465031e+00    3.319991e+00
  3.576160e+00    3.327901e+00
  3.687289e+00    3.335066e+00
  3.798418e+00    3.526278e+00
  3.909547e+00    3.537278e+00
  4.020676e+00    3.455913e+00
  4.131806e+00    3.434623e+00
  4.242935e+00    3.528393e+00
  4.354064e+00    3.559471e+00
  4.465193e+00    3.522850e+00
  4.576322e+00    3.568364e+00
  4.687451e+00    3.570845e+00
  4.798580e+00    3.678243e+00
  4.909709e+00    3.620340e+00
  5.020838e+00    3.644559e+00
  5.131967e+00    3.618037e+00
  5.243096e+00    3.696158e+00
  5.354225e+00    3.654000e+00
  5.465354e+00    3.560307e+00
  5.576483e+00    3.554003e+00
  5.687612e+00    3.504682e+00
  5.798741e+00    3.516940e+00
  5.909870e+00    3.505129e+00
  6.020999e+00    3.606956e+00
  6.132128e+00    3.697663e+00
  6.243257e+00    3.594510e+00
  6.354386e+00    3.530825e+00
  6.465515e+00    3.574322e+00
  6.576644e+00    3.558024e+00
  6.687773e+00    3.654799e+00
  6.798902e+00    3.536986e+00
  6.910031e+00    3.473739e+00
  7.021160e+00    3.509891e+00
  7.132289e+00    3.575474e+00
  7.243418e+00    3.452590e+00
  7.354547e+00    3.502799e+00
  7.465676e+00    3.459099e+00
  7.576805e+00    3.522591e+00
  7.687934e+00    3.441247e+00
  7.799063e+00    3.448425e+00
  7.910192e+00    3.380731e+00
  8.021321e+00    3.465728e+00
  8.132450e+00    3.440859e+00
  8.243579e+00    3.461262e+00
  8.354708e+00    3.409694e+00
  8.465837e+00    3.370924e+00
  8.576966e+00    3.345161e+00
  8.688095e+00    3.350431e+00
  8.799224e+00    3.347220e+00
  8.910353e+00    3.345745e+00
  9.021482e+00    3.309890e+00
  9.132611e+00    3.199181e+00
  9.243740e+00    3.317011e+00
  9.354869e+00    3.199059e+00
  9.465998e+00    3.174494e+00
  9.577127e+00    3.260755e+00
  9.688256e+00    3.185442e+00
  9.799385e+00    3.156116e+00
  9.910514e+00    3.103127e+00
  1.002164e+01    3.094015e+00
  1.013277e+01    3.105665e+00
  1.024390e+01    3.010247e+00
  1.035503e+01    3.020412e+00
  1.046616e+01    3.055146e+00
  1.057729e+01    3.014796e+00
  1.068842e+01    2.999204e+00
  1.079955e+01    2.914845e+00
  1.091068e+01    2.941722e+00
  1.102180e+01    2.946001e+00
  1.113293e+01    2.814608e+00
  1.124406e+01    2.854447e+00
  1.135519e+01    2.840331e+00
  1.146632e+01    2.790532e+00
  1.157745e+01    2.780895e+00
  1.168858e+01    2.752724e+00
  1.179971e+01    2.765661e+00
  1.191084e+01    2.725333e+00
  1.202197e+01    2.711399e+00
  1.213309e+01    2.668425e+00
  1.224422e+01    2.683278e+00
  1.235535e+01    2.633930e+00
  1.246648e+01    2.733773e+00
  1.257761e+01    2.731876e+00
  1.268874e+01    2.840596e+00
  1.279987e+01    2.987313e+00
  1.291100e+01    3.649497e+00
  1.302213e+01    6.671929e+00
  1.313326e+01    1.487297e+01
  1.324438e+01    1.075721e+01
  1.335551e+01    4.424179e+00
  1.346664e+01    3.123003e+00
  1.357777e+01    2.737894e+00
  1.368890e+01    2.621751e+00
  1.380003e+01    2.458005e+00
  1.391116e+01    2.405342e+00
  1.402229e+01    2.378581e+00
  1.413342e+01    2.335454e+00
  1.424455e+01    2.344230e+00
  1.435568e+01    2.295212e+00
  1.446680e+01    2.197351e+00
  1.457793e+01    2.213067e+00
  1.468906e+01    2.210675e+00
  1.480019e+01    2.216429e+00
  1.491132e+01    2.228031e+00
  1.502245e+01    2.493222e+00
  1.513358e+01    3.745819e+00
  1.524471e+01    5.650397e+00
  1.535584e+01    3.747020e+00
  1.546697e+01    2.416426e+00
  1.557809e+01    2.108045e+00
  1.568922e+01    1.987304e+00
  1.580035e+01    1.937131e+00
  1.591148e+01    1.882923e+00
  1.602261e+01    1.869694e+00
  1.613374e+01    1.829969e+00
  1.624487e+01    1.829458e+00
  1.635600e+01    1.761500e+00
  1.646713e+01    1.769621e+00
  1.657826e+01    1.748134e+00
  1.668938e+01    1.722402e+00
  1.680051e+01    1.724851e+00
  1.691164e+01    1.712096e+00
  1.702277e+01    1.661140e+00
  1.713390e+01    1.644619e+00
  1.724503e+01    1.631195e+00
  1.735616e+01    1.606518e+00
  1.746729e+01    1.596234e+00
  1.757842e+01    1.593758e+00
  1.768955e+01    1.548093e+00
  1.780067e+01    1.527564e+00
  1.791180e+01    1.496697e+00
  1.802293e+01    1.539809e+00
  1.813406e+01    1.497522e+00
  1.824519e+01    1.483473e+00
  1.835632e+01    1.463174e+00
  1.846745e+01    1.433548e+00
  1.857858e+01    1.434141e+00
  1.868971e+01    1.416608e+00
  1.880084e+01    1.435858e+00
  1.891196e+01    1.408081e+00
  1.902309e+01    1.373491e+00
  1.913422e+01    1.341073e+00
  1.924535e+01    1.319415e+00
  1.935648e+01    1.318479e+00
  1.946761e+01    1.324724e+00
  1.957874e+01    1.334471e+00
  1.968987e+01    1.321777e+00
  1.980100e+01    1.300213e+00
  1.991213e+01    1.265465e+00
  2.002325e+01    1.282159e+00
  2.013438e+01    1.248012e+00
  2.024551e+01    1.257688e+00
  2.035664e+01    1.257304e+00
  2.046777e+01    1.237879e+00
  2.057890e+01    1.245604e+00
  2.069003e+01    1.229758e+00
  2.080116e+01    1.219292e+00
  2.091229e+01    1.218469e+00
  2.102342e+01    1.213048e+00
  2.113455e+01    1.240868e+00
  2.124567e+01    1.243960e+00
  2.135680e+01    1.286080e+00
  2.146793e+01    1.365993e+00
  2.157906e+01    1.638516e+00
  2.169019e+01    2.547548e+00
  2.180132e+01    5.852143e+00
  2.191245e+01    8.704977e+00
  2.202358e+01    3.650496e+00
  2.213471e+01    1.907078e+00
  2.224584e+01    1.413267e+00
  2.235696e+01    1.268450e+00
  2.246809e+01    1.173851e+00
  2.257922e+01    1.141391e+00
  2.269035e+01    1.086745e+00
  2.280148e+01    1.075868e+00
  2.291261e+01    1.054439e+00
  2.302374e+01    1.029400e+00
  2.313487e+01    1.014304e+00
  2.324600e+01    9.981718e-01
  2.335713e+01    9.592948e-01
  2.346825e+01    9.596816e-01
  2.357938e+01    9.764010e-01
  2.369051e+01    9.773833e-01
  2.380164e+01    9.140607e-01
  2.391277e+01    9.169380e-01
  2.402390e+01    9.102643e-01
  2.413503e+01    8.846030e-01
  2.424616e+01    9.030331e-01
  2.435729e+01    9.001612e-01
  2.446842e+01    8.844830e-01
  2.457954e+01    8.803406e-01
  2.469067e+01    8.837981e-01
  2.480180e+01    8.880301e-01
  2.491293e+01    9.019364e-01
  2.502406e+01    8.968270e-01
  2.513519e+01    9.129709e-01
  2.524632e+01    9.306958e-01
  2.535745e+01    9.671218e-01
  2.546858e+01    1.007643e+00
  2.557971e+01    1.137632e+00
  2.569083e+01    1.498008e+00
  2.580196e+01    2.822407e+00
  2.591309e+01    6.372350e+00
  2.602422e+01    5.316334e+00
  2.613535e+01    2.152931e+00
  2.624648e+01    1.343365e+00
  2.635761e+01    1.114391e+00
  2.646874e+01    1.016312e+00
  2.657987e+01    9.865821e-01
  2.669100e+01    9.548429e-01
  2.680212e+01    9.662673e-01
  2.691325e+01    9.853684e-01
  2.702438e+01    1.137211e+00
  2.713551e+01    1.714721e+00
  2.724664e+01    2.080871e+00
  2.735777e+01    1.271936e+00
  2.746890e+01    1.032732e+00
  2.758003e+01    9.254319e-01
  2.769116e+01    8.983653e-01
  2.780229e+01    8.926939e-01
  2.791342e+01    8.735011e-01
  2.802454e+01    8.859895e-01
  2.813567e+01    8.768274e-01
  2.824680e+01    8.371938e-01
  2.835793e+01    8.409305e-01
  2.846906e+01    8.171608e-01
  2.858019e+01    8.520315e-01
  2.869132e+01    8.415095e-01
  2.880245e+01    8.197076e-01
  2.891358e+01    8.049278e-01
  2.902471e+01    8.143608e-01
  2.913583e+01    8.106734e-01
  2.924696e+01    8.346229e-01
  2.935809e+01    8.222892e-01
  2.946922e+01    7.878674e-01
  2.958035e+01    8.105873e-01
  2.969148e+01    7.980433e-01
  2.980261e+01    8.010443e-01
  2.991374e+01    8.035497e-01
  3.002487e+01    8.018682e-01
  3.013600e+01    7.921060e-01
  3.024712e+01    7.670464e-01
  3.035825e+01    7.805359e-01
  3.046938e+01    7.725652e-01
  3.058051e+01    7.886409e-01
  3.069164e+01    7.736870e-01
  3.080277e+01    7.767479e-01
  3.091390e+01    7.983846e-01
  3.102503e+01    7.938480e-01
  3.113616e+01    8.001589e-01
  3.124729e+01    8.071319e-01
  3.135841e+01    8.221254e-01
  3.146954e+01    8.198609e-01
  3.158067e+01    8.625598e-01
  3.169180e+01    9.975272e-01
  3.180293e+01    1.406367e+00
  3.191406e+01    2.094614e+00
  3.202519e+01    1.309449e+00
  3.213632e+01    9.311702e-01
  3.224745e+01    8.239503e-01
  3.235858e+01    7.927849e-01
  3.246970e+01    7.834274e-01
  3.254908e+01    7.590823e-01