File: XRD/Reaction conditions/2024-07-27_003_Ru-CGO-ex_Reaction_dwell_000023_data_000080.dat
# == pyFAI calibration ==
# Distance Sample to Detector: 0.4 m
# PONI: 9.750e-02, 1.135e-01 m
# Rotations: -0.000175 0.000000 -0.000000 rad
#
# == Fit2d calibration ==
# Distance Sample-beamCenter: 400.000 mm
# Center: x=1514.000, y=1300.000 pix
# Tilt: 0.010 deg  TiltPlanRot: 0.010 deg
#
# Detector Detector	 Spline= None	 PixelSize= 7.500e-05, 7.500e-05 m
#    Detector has a mask: False
#    Detector has a dark current: False
#    detector has a flat field: False
#
# Wavelength: 6.888e-11 m
# Mask applied: user provided
# Dark current applied: False
# Flat field applied: False
# Polarization factor: 0.99
# Normalization factor: 1.0
# --> /home/myspot/data/2024_07_Rosario/Ru-CGO-ex/2024-07-27_003_Ru-CGO-ex_Reaction_dwell_000023_data_000080.dat
#       q_nm^-1             I
  2.003187e-02    7.712225e-02
  1.311609e-01    1.038308e-01
  2.422899e-01    2.782770e-02
  3.534189e-01    1.656584e-02
  4.645479e-01    5.746244e-02
  5.756770e-01    4.777022e-02
  6.868060e-01    2.851461e-02
  7.979350e-01    1.424786e-01
  9.090640e-01    5.961680e-01
  1.020193e+00    1.308503e+00
  1.131322e+00    1.586182e+00
  1.242451e+00    2.357568e+00
  1.353580e+00    2.855991e+00
  1.464709e+00    3.004194e+00
  1.575838e+00    3.110351e+00
  1.686967e+00    3.142162e+00
  1.798096e+00    3.154210e+00
  1.909225e+00    2.993072e+00
  2.020354e+00    3.148140e+00
  2.131483e+00    3.121210e+00
  2.242612e+00    3.004401e+00
  2.353741e+00    3.138414e+00
  2.464870e+00    3.199718e+00
  2.575999e+00    3.266565e+00
  2.687128e+00    3.153927e+00
  2.798257e+00    3.274636e+00
  2.909386e+00    3.381076e+00
  3.020515e+00    3.393765e+00
  3.131644e+00    3.485497e+00
  3.242773e+00    3.439465e+00
  3.353902e+00    3.399870e+00
  3.465031e+00    3.416781e+00
  3.576160e+00    3.441906e+00
  3.687289e+00    3.425651e+00
  3.798418e+00    3.470710e+00
  3.909547e+00    3.503108e+00
  4.020676e+00    3.605679e+00
  4.131806e+00    3.649919e+00
  4.242935e+00    3.573788e+00
  4.354064e+00    3.561987e+00
  4.465193e+00    3.608559e+00
  4.576322e+00    3.556185e+00
  4.687451e+00    3.708325e+00
  4.798580e+00    3.616523e+00
  4.909709e+00    3.610049e+00
  5.020838e+00    3.711064e+00
  5.131967e+00    3.713140e+00
  5.243096e+00    3.696634e+00
  5.354225e+00    3.697090e+00
  5.465354e+00    3.660101e+00
  5.576483e+00    3.613616e+00
  5.687612e+00    3.584718e+00
  5.798741e+00    3.561225e+00
  5.909870e+00    3.539048e+00
  6.020999e+00    3.473145e+00
  6.132128e+00    3.662412e+00
  6.243257e+00    3.526962e+00
  6.354386e+00    3.560994e+00
  6.465515e+00    3.656173e+00
  6.576644e+00    3.621236e+00
  6.687773e+00    3.560192e+00
  6.798902e+00    3.511624e+00
  6.910031e+00    3.542515e+00
  7.021160e+00    3.508754e+00
  7.132289e+00    3.632075e+00
  7.243418e+00    3.581241e+00
  7.354547e+00    3.564171e+00
  7.465676e+00    3.526246e+00
  7.576805e+00    3.462438e+00
  7.687934e+00    3.476343e+00
  7.799063e+00    3.415955e+00
  7.910192e+00    3.455225e+00
  8.021321e+00    3.406240e+00
  8.132450e+00    3.482129e+00
  8.243579e+00    3.490574e+00
  8.354708e+00    3.413147e+00
  8.465837e+00    3.360374e+00
  8.576966e+00    3.368499e+00
  8.688095e+00    3.404170e+00
  8.799224e+00    3.312772e+00
  8.910353e+00    3.280652e+00
  9.021482e+00    3.316542e+00
  9.132611e+00    3.289437e+00
  9.243740e+00    3.263149e+00
  9.354869e+00    3.240008e+00
  9.465998e+00    3.240888e+00
  9.577127e+00    3.233077e+00
  9.688256e+00    3.208990e+00
  9.799385e+00    3.150019e+00
  9.910514e+00    3.175320e+00
  1.002164e+01    3.110397e+00
  1.013277e+01    3.066658e+00
  1.024390e+01    3.039674e+00
  1.035503e+01    3.078723e+00
  1.046616e+01    3.054365e+00
  1.057729e+01    3.012979e+00
  1.068842e+01    2.993988e+00
  1.079955e+01    2.961732e+00
  1.091068e+01    2.946208e+00
  1.102180e+01    2.951401e+00
  1.113293e+01    2.875865e+00
  1.124406e+01    2.839646e+00
  1.135519e+01    2.843571e+00
  1.146632e+01    2.829627e+00
  1.157745e+01    2.765780e+00
  1.168858e+01    2.830184e+00
  1.179971e+01    2.749060e+00
  1.191084e+01    2.710216e+00
  1.202197e+01    2.718389e+00
  1.213309e+01    2.697561e+00
  1.224422e+01    2.695761e+00
  1.235535e+01    2.707273e+00
  1.246648e+01    2.690468e+00
  1.257761e+01    2.722517e+00
  1.268874e+01    2.856840e+00
  1.279987e+01    3.070334e+00
  1.291100e+01    3.706025e+00
  1.302213e+01    6.785789e+00
  1.313326e+01    1.492858e+01
  1.324438e+01    1.081862e+01
  1.335551e+01    4.490921e+00
  1.346664e+01    3.143866e+00
  1.357777e+01    2.693611e+00
  1.368890e+01    2.560895e+00
  1.380003e+01    2.477319e+00
  1.391116e+01    2.440774e+00
  1.402229e+01    2.373250e+00
  1.413342e+01    2.344666e+00
  1.424455e+01    2.306521e+00
  1.435568e+01    2.276592e+00
  1.446680e+01    2.191724e+00
  1.457793e+01    2.224451e+00
  1.468906e+01    2.232647e+00
  1.480019e+01    2.187746e+00
  1.491132e+01    2.273663e+00
  1.502245e+01    2.482568e+00
  1.513358e+01    3.872079e+00
  1.524471e+01    5.767651e+00
  1.535584e+01    3.812386e+00
  1.546697e+01    2.428544e+00
  1.557809e+01    2.128796e+00
  1.568922e+01    2.054981e+00
  1.580035e+01    1.963286e+00
  1.591148e+01    1.907198e+00
  1.602261e+01    1.900919e+00
  1.613374e+01    1.875024e+00
  1.624487e+01    1.793912e+00
  1.635600e+01    1.749008e+00
  1.646713e+01    1.770200e+00
  1.657826e+01    1.757117e+00
  1.668938e+01    1.741625e+00
  1.680051e+01    1.717245e+00
  1.691164e+01    1.683924e+00
  1.702277e+01    1.655665e+00
  1.713390e+01    1.653957e+00
  1.724503e+01    1.609192e+00
  1.735616e+01    1.598237e+00
  1.746729e+01    1.596376e+00
  1.757842e+01    1.605592e+00
  1.768955e+01    1.566222e+00
  1.780067e+01    1.536717e+00
  1.791180e+01    1.522825e+00
  1.802293e+01    1.490601e+00
  1.813406e+01    1.505371e+00
  1.824519e+01    1.487384e+00
  1.835632e+01    1.500577e+00
  1.846745e+01    1.435921e+00
  1.857858e+01    1.441304e+00
  1.868971e+01    1.421270e+00
  1.880084e+01    1.401569e+00
  1.891196e+01    1.390093e+00
  1.902309e+01    1.394331e+00
  1.913422e+01    1.358454e+00
  1.924535e+01    1.366650e+00
  1.935648e+01    1.386218e+00
  1.946761e+01    1.356709e+00
  1.957874e+01    1.323844e+00
  1.968987e+01    1.322436e+00
  1.980100e+01    1.293559e+00
  1.991213e+01    1.297640e+00
  2.002325e+01    1.288253e+00
  2.013438e+01    1.275254e+00
  2.024551e+01    1.265405e+00
  2.035664e+01    1.249164e+00
  2.046777e+01    1.242697e+00
  2.057890e+01    1.229655e+00
  2.069003e+01    1.248463e+00
  2.080116e+01    1.234919e+00
  2.091229e+01    1.232863e+00
  2.102342e+01    1.227636e+00
  2.113455e+01    1.216658e+00
  2.124567e+01    1.245760e+00
  2.135680e+01    1.283549e+00
  2.146793e+01    1.367893e+00
  2.157906e+01    1.612319e+00
  2.169019e+01    2.548532e+00
  2.180132e+01    5.934098e+00
  2.191245e+01    8.932803e+00
  2.202358e+01    3.666177e+00
  2.213471e+01    1.873347e+00
  2.224584e+01    1.419139e+00
  2.235696e+01    1.256813e+00
  2.246809e+01    1.153641e+00
  2.257922e+01    1.126065e+00
  2.269035e+01    1.096404e+00
  2.280148e+01    1.069390e+00
  2.291261e+01    1.053179e+00
  2.302374e+01    1.004560e+00
  2.313487e+01    1.015572e+00
  2.324600e+01    9.994747e-01
  2.335713e+01    9.783123e-01
  2.346825e+01    9.725585e-01
  2.357938e+01    9.669725e-01
  2.369051e+01    9.418164e-01
  2.380164e+01    9.512019e-01
  2.391277e+01    9.091387e-01
  2.402390e+01    9.100423e-01
  2.413503e+01    8.953239e-01
  2.424616e+01    8.867133e-01
  2.435729e+01    8.949091e-01
  2.446842e+01    8.947846e-01
  2.457954e+01    8.999658e-01
  2.469067e+01    8.912122e-01
  2.480180e+01    8.931279e-01
  2.491293e+01    8.874708e-01
  2.502406e+01    8.891134e-01
  2.513519e+01    9.139062e-01
  2.524632e+01    9.507462e-01
  2.535745e+01    9.968214e-01
  2.546858e+01    1.043549e+00
  2.557971e+01    1.175457e+00
  2.569083e+01    1.481552e+00
  2.580196e+01    2.821896e+00
  2.591309e+01    6.353527e+00
  2.602422e+01    5.418215e+00
  2.613535e+01    2.193068e+00
  2.624648e+01    1.362024e+00
  2.635761e+01    1.116138e+00
  2.646874e+01    1.041881e+00
  2.657987e+01    1.021783e+00
  2.669100e+01    9.780471e-01
  2.680212e+01    9.761047e-01
  2.691325e+01    1.047067e+00
  2.702438e+01    1.167705e+00
  2.713551e+01    1.730824e+00
  2.724664e+01    2.119349e+00
  2.735777e+01    1.272506e+00
  2.746890e+01    1.024007e+00
  2.758003e+01    9.316993e-01
  2.769116e+01    9.259849e-01
  2.780229e+01    8.892883e-01
  2.791342e+01    8.711272e-01
  2.802454e+01    8.809779e-01
  2.813567e+01    8.499559e-01
  2.824680e+01    8.669546e-01
  2.835793e+01    8.874339e-01
  2.846906e+01    8.503243e-01
  2.858019e+01    8.590826e-01
  2.869132e+01    8.215537e-01
  2.880245e+01    8.359212e-01
  2.891358e+01    8.157407e-01
  2.902471e+01    8.247319e-01
  2.913583e+01    8.375356e-01
  2.924696e+01    8.160977e-01
  2.935809e+01    7.981714e-01
  2.946922e+01    8.177574e-01
  2.958035e+01    8.156664e-01
  2.969148e+01    8.053037e-01
  2.980261e+01    7.882574e-01
  2.991374e+01    8.026202e-01
  3.002487e+01    8.139980e-01
  3.013600e+01    7.880601e-01
  3.024712e+01    7.827572e-01
  3.035825e+01    8.101004e-01
  3.046938e+01    7.918536e-01
  3.058051e+01    7.875912e-01
  3.069164e+01    7.743425e-01
  3.080277e+01    7.961531e-01
  3.091390e+01    7.721618e-01
  3.102503e+01    7.825550e-01
  3.113616e+01    7.992086e-01
  3.124729e+01    7.871337e-01
  3.135841e+01    7.917224e-01
  3.146954e+01    8.068022e-01
  3.158067e+01    8.513580e-01
  3.169180e+01    9.612589e-01
  3.180293e+01    1.469671e+00
  3.191406e+01    2.133600e+00
  3.202519e+01    1.327482e+00
  3.213632e+01    9.179122e-01
  3.224745e+01    8.446642e-01
  3.235858e+01    8.137293e-01
  3.246970e+01    7.933435e-01
  3.254908e+01    7.969319e-01