File: XRD/Reaction conditions/2024-07-27_003_Ru-CGO-ex_Reaction_dwell_000023_data_000038.dat
# == pyFAI calibration ==
# Distance Sample to Detector: 0.4 m
# PONI: 9.750e-02, 1.135e-01 m
# Rotations: -0.000175 0.000000 -0.000000 rad
#
# == Fit2d calibration ==
# Distance Sample-beamCenter: 400.000 mm
# Center: x=1514.000, y=1300.000 pix
# Tilt: 0.010 deg  TiltPlanRot: 0.010 deg
#
# Detector Detector	 Spline= None	 PixelSize= 7.500e-05, 7.500e-05 m
#    Detector has a mask: False
#    Detector has a dark current: False
#    detector has a flat field: False
#
# Wavelength: 6.888e-11 m
# Mask applied: user provided
# Dark current applied: False
# Flat field applied: False
# Polarization factor: 0.99
# Normalization factor: 1.0
# --> /home/myspot/data/2024_07_Rosario/Ru-CGO-ex/2024-07-27_003_Ru-CGO-ex_Reaction_dwell_000023_data_000038.dat
#       q_nm^-1             I
  2.003187e-02    7.711996e-02
  1.311609e-01    3.169733e-02
  2.422899e-01    1.032636e-02
  3.534189e-01    5.563010e-02
  4.645479e-01    7.747817e-02
  5.756770e-01    3.779371e-02
  6.868060e-01    3.085359e-02
  7.979350e-01    2.058207e-01
  9.090640e-01    6.760017e-01
  1.020193e+00    1.314754e+00
  1.131322e+00    1.641088e+00
  1.242451e+00    2.423165e+00
  1.353580e+00    2.812502e+00
  1.464709e+00    3.193970e+00
  1.575838e+00    3.117195e+00
  1.686967e+00    3.208117e+00
  1.798096e+00    3.090248e+00
  1.909225e+00    3.206975e+00
  2.020354e+00    3.018783e+00
  2.131483e+00    3.163860e+00
  2.242612e+00    3.080214e+00
  2.353741e+00    3.138740e+00
  2.464870e+00    3.157449e+00
  2.575999e+00    3.137980e+00
  2.687128e+00    3.236910e+00
  2.798257e+00    3.301357e+00
  2.909386e+00    3.274346e+00
  3.020515e+00    3.291264e+00
  3.131644e+00    3.350227e+00
  3.242773e+00    3.421350e+00
  3.353902e+00    3.452410e+00
  3.465031e+00    3.413074e+00
  3.576160e+00    3.419985e+00
  3.687289e+00    3.595990e+00
  3.798418e+00    3.562824e+00
  3.909547e+00    3.557737e+00
  4.020676e+00    3.553422e+00
  4.131806e+00    3.513687e+00
  4.242935e+00    3.588062e+00
  4.354064e+00    3.633965e+00
  4.465193e+00    3.691352e+00
  4.576322e+00    3.565891e+00
  4.687451e+00    3.601635e+00
  4.798580e+00    3.698554e+00
  4.909709e+00    3.643622e+00
  5.020838e+00    3.690478e+00
  5.131967e+00    3.640258e+00
  5.243096e+00    3.712611e+00
  5.354225e+00    3.667578e+00
  5.465354e+00    3.662355e+00
  5.576483e+00    3.604243e+00
  5.687612e+00    3.658631e+00
  5.798741e+00    3.574873e+00
  5.909870e+00    3.547449e+00
  6.020999e+00    3.522956e+00
  6.132128e+00    3.667870e+00
  6.243257e+00    3.544649e+00
  6.354386e+00    3.585829e+00
  6.465515e+00    3.575908e+00
  6.576644e+00    3.612221e+00
  6.687773e+00    3.509670e+00
  6.798902e+00    3.545777e+00
  6.910031e+00    3.579209e+00
  7.021160e+00    3.581302e+00
  7.132289e+00    3.533197e+00
  7.243418e+00    3.436102e+00
  7.354547e+00    3.519176e+00
  7.465676e+00    3.517890e+00
  7.576805e+00    3.432217e+00
  7.687934e+00    3.462989e+00
  7.799063e+00    3.495728e+00
  7.910192e+00    3.397937e+00
  8.021321e+00    3.379063e+00
  8.132450e+00    3.456025e+00
  8.243579e+00    3.417124e+00
  8.354708e+00    3.434336e+00
  8.465837e+00    3.411324e+00
  8.576966e+00    3.394172e+00
  8.688095e+00    3.264446e+00
  8.799224e+00    3.359483e+00
  8.910353e+00    3.239609e+00
  9.021482e+00    3.356015e+00
  9.132611e+00    3.248677e+00
  9.243740e+00    3.236481e+00
  9.354869e+00    3.246179e+00
  9.465998e+00    3.191315e+00
  9.577127e+00    3.200388e+00
  9.688256e+00    3.261395e+00
  9.799385e+00    3.197737e+00
  9.910514e+00    3.191798e+00
  1.002164e+01    3.097708e+00
  1.013277e+01    3.121910e+00
  1.024390e+01    3.073940e+00
  1.035503e+01    3.086398e+00
  1.046616e+01    3.019391e+00
  1.057729e+01    3.036820e+00
  1.068842e+01    2.977091e+00
  1.079955e+01    2.987745e+00
  1.091068e+01    2.959451e+00
  1.102180e+01    2.914397e+00
  1.113293e+01    2.930288e+00
  1.124406e+01    2.887253e+00
  1.135519e+01    2.810706e+00
  1.146632e+01    2.790843e+00
  1.157745e+01    2.819726e+00
  1.168858e+01    2.729221e+00
  1.179971e+01    2.790989e+00
  1.191084e+01    2.759100e+00
  1.202197e+01    2.700181e+00
  1.213309e+01    2.703935e+00
  1.224422e+01    2.738492e+00
  1.235535e+01    2.677995e+00
  1.246648e+01    2.742696e+00
  1.257761e+01    2.723150e+00
  1.268874e+01    2.833538e+00
  1.279987e+01    3.020683e+00
  1.291100e+01    3.686142e+00
  1.302213e+01    6.767335e+00
  1.313326e+01    1.492417e+01
  1.324438e+01    1.077277e+01
  1.335551e+01    4.457407e+00
  1.346664e+01    3.167465e+00
  1.357777e+01    2.750811e+00
  1.368890e+01    2.584413e+00
  1.380003e+01    2.464084e+00
  1.391116e+01    2.421364e+00
  1.402229e+01    2.404184e+00
  1.413342e+01    2.321472e+00
  1.424455e+01    2.297721e+00
  1.435568e+01    2.256840e+00
  1.446680e+01    2.249794e+00
  1.457793e+01    2.222520e+00
  1.468906e+01    2.227126e+00
  1.480019e+01    2.220917e+00
  1.491132e+01    2.262802e+00
  1.502245e+01    2.548492e+00
  1.513358e+01    3.886490e+00
  1.524471e+01    5.747285e+00
  1.535584e+01    3.805063e+00
  1.546697e+01    2.452458e+00
  1.557809e+01    2.177639e+00
  1.568922e+01    2.021223e+00
  1.580035e+01    1.938226e+00
  1.591148e+01    1.908476e+00
  1.602261e+01    1.874184e+00
  1.613374e+01    1.860349e+00
  1.624487e+01    1.799601e+00
  1.635600e+01    1.783705e+00
  1.646713e+01    1.774294e+00
  1.657826e+01    1.769737e+00
  1.668938e+01    1.711993e+00
  1.680051e+01    1.691231e+00
  1.691164e+01    1.685319e+00
  1.702277e+01    1.652321e+00
  1.713390e+01    1.634921e+00
  1.724503e+01    1.622304e+00
  1.735616e+01    1.629333e+00
  1.746729e+01    1.640623e+00
  1.757842e+01    1.579476e+00
  1.768955e+01    1.578409e+00
  1.780067e+01    1.542018e+00
  1.791180e+01    1.530571e+00
  1.802293e+01    1.530653e+00
  1.813406e+01    1.497031e+00
  1.824519e+01    1.484749e+00
  1.835632e+01    1.500790e+00
  1.846745e+01    1.440147e+00
  1.857858e+01    1.449173e+00
  1.868971e+01    1.437425e+00
  1.880084e+01    1.408081e+00
  1.891196e+01    1.390096e+00
  1.902309e+01    1.385287e+00
  1.913422e+01    1.389172e+00
  1.924535e+01    1.351633e+00
  1.935648e+01    1.354322e+00
  1.946761e+01    1.357856e+00
  1.957874e+01    1.322088e+00
  1.968987e+01    1.305376e+00
  1.980100e+01    1.282989e+00
  1.991213e+01    1.300077e+00
  2.002325e+01    1.291710e+00
  2.013438e+01    1.282875e+00
  2.024551e+01    1.242674e+00
  2.035664e+01    1.227940e+00
  2.046777e+01    1.259738e+00
  2.057890e+01    1.241390e+00
  2.069003e+01    1.239235e+00
  2.080116e+01    1.204193e+00
  2.091229e+01    1.260961e+00
  2.102342e+01    1.253648e+00
  2.113455e+01    1.242251e+00
  2.124567e+01    1.234152e+00
  2.135680e+01    1.270812e+00
  2.146793e+01    1.392787e+00
  2.157906e+01    1.628426e+00
  2.169019e+01    2.537171e+00
  2.180132e+01    6.000603e+00
  2.191245e+01    8.820785e+00
  2.202358e+01    3.613514e+00
  2.213471e+01    1.876368e+00
  2.224584e+01    1.414002e+00
  2.235696e+01    1.254881e+00
  2.246809e+01    1.191603e+00
  2.257922e+01    1.127032e+00
  2.269035e+01    1.092477e+00
  2.280148e+01    1.060629e+00
  2.291261e+01    1.057671e+00
  2.302374e+01    1.022095e+00
  2.313487e+01    1.008955e+00
  2.324600e+01    1.000015e+00
  2.335713e+01    9.753575e-01
  2.346825e+01    9.754626e-01
  2.357938e+01    9.850509e-01
  2.369051e+01    9.442401e-01
  2.380164e+01    9.406214e-01
  2.391277e+01    8.904806e-01
  2.402390e+01    8.923655e-01
  2.413503e+01    8.777297e-01
  2.424616e+01    8.912264e-01
  2.435729e+01    9.064217e-01
  2.446842e+01    9.173226e-01
  2.457954e+01    9.156086e-01
  2.469067e+01    8.756058e-01
  2.480180e+01    8.942506e-01
  2.491293e+01    8.809947e-01
  2.502406e+01    8.842593e-01
  2.513519e+01    8.978044e-01
  2.524632e+01    9.569673e-01
  2.535745e+01    9.789928e-01
  2.546858e+01    1.047744e+00
  2.557971e+01    1.146435e+00
  2.569083e+01    1.546403e+00
  2.580196e+01    2.857636e+00
  2.591309e+01    6.388875e+00
  2.602422e+01    5.303858e+00
  2.613535e+01    2.157077e+00
  2.624648e+01    1.332238e+00
  2.635761e+01    1.111087e+00
  2.646874e+01    1.021744e+00
  2.657987e+01    9.765099e-01
  2.669100e+01    9.764946e-01
  2.680212e+01    1.007437e+00
  2.691325e+01    1.031643e+00
  2.702438e+01    1.148522e+00
  2.713551e+01    1.737988e+00
  2.724664e+01    2.089031e+00
  2.735777e+01    1.282148e+00
  2.746890e+01    1.019526e+00
  2.758003e+01    9.516373e-01
  2.769116e+01    9.278754e-01
  2.780229e+01    8.890135e-01
  2.791342e+01    8.906783e-01
  2.802454e+01    8.931028e-01
  2.813567e+01    8.686910e-01
  2.824680e+01    8.573583e-01
  2.835793e+01    8.591235e-01
  2.846906e+01    8.358678e-01
  2.858019e+01    8.299679e-01
  2.869132e+01    8.428734e-01
  2.880245e+01    8.102237e-01
  2.891358e+01    8.196261e-01
  2.902471e+01    8.212264e-01
  2.913583e+01    8.349420e-01
  2.924696e+01    8.039140e-01
  2.935809e+01    8.035099e-01
  2.946922e+01    8.232051e-01
  2.958035e+01    8.055429e-01
  2.969148e+01    8.128685e-01
  2.980261e+01    8.008726e-01
  2.991374e+01    8.008165e-01
  3.002487e+01    8.027631e-01
  3.013600e+01    7.988702e-01
  3.024712e+01    7.846620e-01
  3.035825e+01    7.836177e-01
  3.046938e+01    8.086941e-01
  3.058051e+01    7.891555e-01
  3.069164e+01    8.010026e-01
  3.080277e+01    7.977234e-01
  3.091390e+01    7.688639e-01
  3.102503e+01    7.999871e-01
  3.113616e+01    8.037560e-01
  3.124729e+01    7.754415e-01
  3.135841e+01    8.147205e-01
  3.146954e+01    8.253371e-01
  3.158067e+01    8.556289e-01
  3.169180e+01    9.849246e-01
  3.180293e+01    1.484815e+00
  3.191406e+01    2.116637e+00
  3.202519e+01    1.323443e+00
  3.213632e+01    9.666962e-01
  3.224745e+01    8.537554e-01
  3.235858e+01    7.924437e-01
  3.246970e+01    7.732068e-01
  3.254908e+01    7.741745e-01