File: XRD/Reaction conditions/2024-07-27_003_Ru-CGO-ex_Reaction_dwell_000023_data_000128.dat
# == pyFAI calibration ==
# Distance Sample to Detector: 0.4 m
# PONI: 9.750e-02, 1.135e-01 m
# Rotations: -0.000175 0.000000 -0.000000 rad
#
# == Fit2d calibration ==
# Distance Sample-beamCenter: 400.000 mm
# Center: x=1514.000, y=1300.000 pix
# Tilt: 0.010 deg  TiltPlanRot: 0.010 deg
#
# Detector Detector	 Spline= None	 PixelSize= 7.500e-05, 7.500e-05 m
#    Detector has a mask: False
#    Detector has a dark current: False
#    detector has a flat field: False
#
# Wavelength: 6.888e-11 m
# Mask applied: user provided
# Dark current applied: False
# Flat field applied: False
# Polarization factor: 0.99
# Normalization factor: 1.0
# --> /home/myspot/data/2024_07_Rosario/Ru-CGO-ex/2024-07-27_003_Ru-CGO-ex_Reaction_dwell_000023_data_000128.dat
#       q_nm^-1             I
  2.003187e-02    0.000000e+00
  1.311609e-01    3.562873e-02
  2.422899e-01    5.378176e-02
  3.534189e-01    2.407540e-02
  4.645479e-01    4.621903e-02
  5.756770e-01    5.657598e-02
  6.868060e-01    3.763973e-02
  7.979350e-01    1.791057e-01
  9.090640e-01    6.678551e-01
  1.020193e+00    1.277528e+00
  1.131322e+00    1.546005e+00
  1.242451e+00    2.359961e+00
  1.353580e+00    2.700362e+00
  1.464709e+00    3.117286e+00
  1.575838e+00    3.305358e+00
  1.686967e+00    3.203417e+00
  1.798096e+00    2.972539e+00
  1.909225e+00    2.955507e+00
  2.020354e+00    3.231550e+00
  2.131483e+00    3.128578e+00
  2.242612e+00    3.080171e+00
  2.353741e+00    3.149178e+00
  2.464870e+00    3.237679e+00
  2.575999e+00    3.154956e+00
  2.687128e+00    3.237291e+00
  2.798257e+00    3.171511e+00
  2.909386e+00    3.361172e+00
  3.020515e+00    3.395791e+00
  3.131644e+00    3.333391e+00
  3.242773e+00    3.458715e+00
  3.353902e+00    3.422547e+00
  3.465031e+00    3.499942e+00
  3.576160e+00    3.415841e+00
  3.687289e+00    3.459428e+00
  3.798418e+00    3.460279e+00
  3.909547e+00    3.574656e+00
  4.020676e+00    3.647269e+00
  4.131806e+00    3.500320e+00
  4.242935e+00    3.498397e+00
  4.354064e+00    3.525558e+00
  4.465193e+00    3.632468e+00
  4.576322e+00    3.537912e+00
  4.687451e+00    3.681455e+00
  4.798580e+00    3.626097e+00
  4.909709e+00    3.520355e+00
  5.020838e+00    3.605503e+00
  5.131967e+00    3.646218e+00
  5.243096e+00    3.657363e+00
  5.354225e+00    3.653893e+00
  5.465354e+00    3.620559e+00
  5.576483e+00    3.608676e+00
  5.687612e+00    3.600323e+00
  5.798741e+00    3.537195e+00
  5.909870e+00    3.563471e+00
  6.020999e+00    3.427606e+00
  6.132128e+00    3.531716e+00
  6.243257e+00    3.536396e+00
  6.354386e+00    3.545030e+00
  6.465515e+00    3.501109e+00
  6.576644e+00    3.574272e+00
  6.687773e+00    3.584329e+00
  6.798902e+00    3.395416e+00
  6.910031e+00    3.481873e+00
  7.021160e+00    3.488569e+00
  7.132289e+00    3.465725e+00
  7.243418e+00    3.487792e+00
  7.354547e+00    3.445776e+00
  7.465676e+00    3.460077e+00
  7.576805e+00    3.495329e+00
  7.687934e+00    3.422018e+00
  7.799063e+00    3.493286e+00
  7.910192e+00    3.429047e+00
  8.021321e+00    3.463863e+00
  8.132450e+00    3.457006e+00
  8.243579e+00    3.446212e+00
  8.354708e+00    3.381304e+00
  8.465837e+00    3.410238e+00
  8.576966e+00    3.343583e+00
  8.688095e+00    3.322981e+00
  8.799224e+00    3.307654e+00
  8.910353e+00    3.261593e+00
  9.021482e+00    3.284837e+00
  9.132611e+00    3.270531e+00
  9.243740e+00    3.241774e+00
  9.354869e+00    3.221275e+00
  9.465998e+00    3.164506e+00
  9.577127e+00    3.206708e+00
  9.688256e+00    3.149934e+00
  9.799385e+00    3.126018e+00
  9.910514e+00    3.105008e+00
  1.002164e+01    3.086637e+00
  1.013277e+01    3.097375e+00
  1.024390e+01    3.086672e+00
  1.035503e+01    3.034928e+00
  1.046616e+01    3.047936e+00
  1.057729e+01    2.932459e+00
  1.068842e+01    2.964716e+00
  1.079955e+01    2.914903e+00
  1.091068e+01    2.866475e+00
  1.102180e+01    2.869216e+00
  1.113293e+01    2.856642e+00
  1.124406e+01    2.913478e+00
  1.135519e+01    2.854536e+00
  1.146632e+01    2.796165e+00
  1.157745e+01    2.784917e+00
  1.168858e+01    2.749418e+00
  1.179971e+01    2.757252e+00
  1.191084e+01    2.704099e+00
  1.202197e+01    2.700166e+00
  1.213309e+01    2.656746e+00
  1.224422e+01    2.657715e+00
  1.235535e+01    2.676223e+00
  1.246648e+01    2.655251e+00
  1.257761e+01    2.723606e+00
  1.268874e+01    2.804921e+00
  1.279987e+01    3.000880e+00
  1.291100e+01    3.619867e+00
  1.302213e+01    6.670265e+00
  1.313326e+01    1.493293e+01
  1.324438e+01    1.075162e+01
  1.335551e+01    4.386100e+00
  1.346664e+01    3.165857e+00
  1.357777e+01    2.726213e+00
  1.368890e+01    2.566123e+00
  1.380003e+01    2.440153e+00
  1.391116e+01    2.398210e+00
  1.402229e+01    2.350093e+00
  1.413342e+01    2.329153e+00
  1.424455e+01    2.259595e+00
  1.435568e+01    2.233733e+00
  1.446680e+01    2.229970e+00
  1.457793e+01    2.209330e+00
  1.468906e+01    2.178996e+00
  1.480019e+01    2.186548e+00
  1.491132e+01    2.237445e+00
  1.502245e+01    2.477662e+00
  1.513358e+01    3.783328e+00
  1.524471e+01    5.694444e+00
  1.535584e+01    3.753102e+00
  1.546697e+01    2.440666e+00
  1.557809e+01    2.100458e+00
  1.568922e+01    2.025193e+00
  1.580035e+01    1.931873e+00
  1.591148e+01    1.903612e+00
  1.602261e+01    1.864695e+00
  1.613374e+01    1.821127e+00
  1.624487e+01    1.799939e+00
  1.635600e+01    1.781063e+00
  1.646713e+01    1.776813e+00
  1.657826e+01    1.721073e+00
  1.668938e+01    1.690449e+00
  1.680051e+01    1.734350e+00
  1.691164e+01    1.658342e+00
  1.702277e+01    1.662639e+00
  1.713390e+01    1.597334e+00
  1.724503e+01    1.623002e+00
  1.735616e+01    1.600054e+00
  1.746729e+01    1.585299e+00
  1.757842e+01    1.555015e+00
  1.768955e+01    1.560664e+00
  1.780067e+01    1.534609e+00
  1.791180e+01    1.502802e+00
  1.802293e+01    1.489941e+00
  1.813406e+01    1.469058e+00
  1.824519e+01    1.494366e+00
  1.835632e+01    1.455267e+00
  1.846745e+01    1.447400e+00
  1.857858e+01    1.452467e+00
  1.868971e+01    1.397211e+00
  1.880084e+01    1.412875e+00
  1.891196e+01    1.393901e+00
  1.902309e+01    1.397622e+00
  1.913422e+01    1.373511e+00
  1.924535e+01    1.359472e+00
  1.935648e+01    1.353117e+00
  1.946761e+01    1.334386e+00
  1.957874e+01    1.331629e+00
  1.968987e+01    1.312170e+00
  1.980100e+01    1.305874e+00
  1.991213e+01    1.283244e+00
  2.002325e+01    1.268116e+00
  2.013438e+01    1.265529e+00
  2.024551e+01    1.249029e+00
  2.035664e+01    1.245813e+00
  2.046777e+01    1.227044e+00
  2.057890e+01    1.236508e+00
  2.069003e+01    1.217465e+00
  2.080116e+01    1.224258e+00
  2.091229e+01    1.214737e+00
  2.102342e+01    1.211197e+00
  2.113455e+01    1.222319e+00
  2.124567e+01    1.226532e+00
  2.135680e+01    1.305342e+00
  2.146793e+01    1.358502e+00
  2.157906e+01    1.621128e+00
  2.169019e+01    2.476685e+00
  2.180132e+01    5.784819e+00
  2.191245e+01    8.736807e+00
  2.202358e+01    3.638542e+00
  2.213471e+01    1.871811e+00
  2.224584e+01    1.392379e+00
  2.235696e+01    1.244474e+00
  2.246809e+01    1.147464e+00
  2.257922e+01    1.106597e+00
  2.269035e+01    1.054394e+00
  2.280148e+01    1.046629e+00
  2.291261e+01    1.038489e+00
  2.302374e+01    9.948705e-01
  2.313487e+01    9.844363e-01
  2.324600e+01    9.894539e-01
  2.335713e+01    9.746738e-01
  2.346825e+01    9.502373e-01
  2.357938e+01    9.775733e-01
  2.369051e+01    9.484938e-01
  2.380164e+01    9.334502e-01
  2.391277e+01    9.198258e-01
  2.402390e+01    9.097310e-01
  2.413503e+01    8.811125e-01
  2.424616e+01    8.787099e-01
  2.435729e+01    8.679768e-01
  2.446842e+01    8.937113e-01
  2.457954e+01    8.781679e-01
  2.469067e+01    8.963869e-01
  2.480180e+01    9.057154e-01
  2.491293e+01    8.895631e-01
  2.502406e+01    8.927248e-01
  2.513519e+01    9.213714e-01
  2.524632e+01    9.411336e-01
  2.535745e+01    9.558368e-01
  2.546858e+01    1.043826e+00
  2.557971e+01    1.154966e+00
  2.569083e+01    1.490892e+00
  2.580196e+01    2.812949e+00
  2.591309e+01    6.339081e+00
  2.602422e+01    5.357004e+00
  2.613535e+01    2.143660e+00
  2.624648e+01    1.358146e+00
  2.635761e+01    1.107120e+00
  2.646874e+01    1.013071e+00
  2.657987e+01    9.937086e-01
  2.669100e+01    9.703456e-01
  2.680212e+01    9.823130e-01
  2.691325e+01    1.019488e+00
  2.702438e+01    1.147323e+00
  2.713551e+01    1.731149e+00
  2.724664e+01    2.098251e+00
  2.735777e+01    1.274822e+00
  2.746890e+01    9.990197e-01
  2.758003e+01    9.258070e-01
  2.769116e+01    9.008001e-01
  2.780229e+01    8.880450e-01
  2.791342e+01    8.607821e-01
  2.802454e+01    8.431397e-01
  2.813567e+01    8.698174e-01
  2.824680e+01    8.456870e-01
  2.835793e+01    8.246471e-01
  2.846906e+01    8.372036e-01
  2.858019e+01    8.298416e-01
  2.869132e+01    8.010288e-01
  2.880245e+01    8.578229e-01
  2.891358e+01    8.372995e-01
  2.902471e+01    8.378630e-01
  2.913583e+01    8.045233e-01
  2.924696e+01    8.123559e-01
  2.935809e+01    8.136146e-01
  2.946922e+01    7.900820e-01
  2.958035e+01    7.902147e-01
  2.969148e+01    7.816440e-01
  2.980261e+01    7.885833e-01
  2.991374e+01    7.798641e-01
  3.002487e+01    8.420602e-01
  3.013600e+01    7.897404e-01
  3.024712e+01    7.816377e-01
  3.035825e+01    7.916806e-01
  3.046938e+01    7.929432e-01
  3.058051e+01    8.055245e-01
  3.069164e+01    7.851276e-01
  3.080277e+01    7.592859e-01
  3.091390e+01    7.738830e-01
  3.102503e+01    7.723763e-01
  3.113616e+01    7.935172e-01
  3.124729e+01    7.931625e-01
  3.135841e+01    8.072886e-01
  3.146954e+01    8.249965e-01
  3.158067e+01    8.707269e-01
  3.169180e+01    1.001723e+00
  3.180293e+01    1.465858e+00
  3.191406e+01    2.085152e+00
  3.202519e+01    1.303771e+00
  3.213632e+01    9.503169e-01
  3.224745e+01    8.413107e-01
  3.235858e+01    7.986304e-01
  3.246970e+01    7.958308e-01
  3.254908e+01    7.913934e-01