File: XRD/Reaction conditions/2024-07-27_003_Ru-CGO-ex_Reaction_dwell_000023_data_000067.dat
# == pyFAI calibration ==
# Distance Sample to Detector: 0.4 m
# PONI: 9.750e-02, 1.135e-01 m
# Rotations: -0.000175 0.000000 -0.000000 rad
#
# == Fit2d calibration ==
# Distance Sample-beamCenter: 400.000 mm
# Center: x=1514.000, y=1300.000 pix
# Tilt: 0.010 deg  TiltPlanRot: 0.010 deg
#
# Detector Detector	 Spline= None	 PixelSize= 7.500e-05, 7.500e-05 m
#    Detector has a mask: False
#    Detector has a dark current: False
#    detector has a flat field: False
#
# Wavelength: 6.888e-11 m
# Mask applied: user provided
# Dark current applied: False
# Flat field applied: False
# Polarization factor: 0.99
# Normalization factor: 1.0
# --> /home/myspot/data/2024_07_Rosario/Ru-CGO-ex/2024-07-27_003_Ru-CGO-ex_Reaction_dwell_000023_data_000067.dat
#       q_nm^-1             I
  2.003187e-02    0.000000e+00
  1.311609e-01    6.506148e-02
  2.422899e-01    7.966809e-02
  3.534189e-01    7.128271e-02
  4.645479e-01    6.334612e-02
  5.756770e-01    3.091926e-02
  6.868060e-01    5.608198e-02
  7.979350e-01    1.945906e-01
  9.090640e-01    6.678389e-01
  1.020193e+00    1.299494e+00
  1.131322e+00    1.561990e+00
  1.242451e+00    2.273542e+00
  1.353580e+00    2.725756e+00
  1.464709e+00    3.088400e+00
  1.575838e+00    3.048393e+00
  1.686967e+00    3.101962e+00
  1.798096e+00    2.982191e+00
  1.909225e+00    3.142327e+00
  2.020354e+00    2.990464e+00
  2.131483e+00    3.096055e+00
  2.242612e+00    3.174196e+00
  2.353741e+00    3.225811e+00
  2.464870e+00    3.103014e+00
  2.575999e+00    3.137990e+00
  2.687128e+00    3.147161e+00
  2.798257e+00    3.288996e+00
  2.909386e+00    3.341969e+00
  3.020515e+00    3.339563e+00
  3.131644e+00    3.440928e+00
  3.242773e+00    3.372393e+00
  3.353902e+00    3.358595e+00
  3.465031e+00    3.477658e+00
  3.576160e+00    3.452159e+00
  3.687289e+00    3.413159e+00
  3.798418e+00    3.494473e+00
  3.909547e+00    3.500946e+00
  4.020676e+00    3.566858e+00
  4.131806e+00    3.563991e+00
  4.242935e+00    3.595665e+00
  4.354064e+00    3.520589e+00
  4.465193e+00    3.594872e+00
  4.576322e+00    3.558282e+00
  4.687451e+00    3.600843e+00
  4.798580e+00    3.651948e+00
  4.909709e+00    3.682047e+00
  5.020838e+00    3.653786e+00
  5.131967e+00    3.675496e+00
  5.243096e+00    3.652242e+00
  5.354225e+00    3.593493e+00
  5.465354e+00    3.607605e+00
  5.576483e+00    3.607160e+00
  5.687612e+00    3.622481e+00
  5.798741e+00    3.565957e+00
  5.909870e+00    3.609953e+00
  6.020999e+00    3.472097e+00
  6.132128e+00    3.600478e+00
  6.243257e+00    3.520154e+00
  6.354386e+00    3.567746e+00
  6.465515e+00    3.517804e+00
  6.576644e+00    3.558360e+00
  6.687773e+00    3.480893e+00
  6.798902e+00    3.513754e+00
  6.910031e+00    3.596611e+00
  7.021160e+00    3.506239e+00
  7.132289e+00    3.505768e+00
  7.243418e+00    3.556298e+00
  7.354547e+00    3.480670e+00
  7.465676e+00    3.464236e+00
  7.576805e+00    3.404977e+00
  7.687934e+00    3.460670e+00
  7.799063e+00    3.440171e+00
  7.910192e+00    3.402915e+00
  8.021321e+00    3.422685e+00
  8.132450e+00    3.488590e+00
  8.243579e+00    3.514997e+00
  8.354708e+00    3.290140e+00
  8.465837e+00    3.326962e+00
  8.576966e+00    3.321445e+00
  8.688095e+00    3.402695e+00
  8.799224e+00    3.350446e+00
  8.910353e+00    3.276609e+00
  9.021482e+00    3.262022e+00
  9.132611e+00    3.288490e+00
  9.243740e+00    3.297354e+00
  9.354869e+00    3.257475e+00
  9.465998e+00    3.168449e+00
  9.577127e+00    3.211447e+00
  9.688256e+00    3.158458e+00
  9.799385e+00    3.134893e+00
  9.910514e+00    3.121543e+00
  1.002164e+01    3.055327e+00
  1.013277e+01    3.122609e+00
  1.024390e+01    3.114068e+00
  1.035503e+01    3.037906e+00
  1.046616e+01    3.009697e+00
  1.057729e+01    2.992039e+00
  1.068842e+01    2.933425e+00
  1.079955e+01    2.904985e+00
  1.091068e+01    2.936580e+00
  1.102180e+01    2.899488e+00
  1.113293e+01    2.923525e+00
  1.124406e+01    2.861714e+00
  1.135519e+01    2.838070e+00
  1.146632e+01    2.813940e+00
  1.157745e+01    2.801913e+00
  1.168858e+01    2.800347e+00
  1.179971e+01    2.753246e+00
  1.191084e+01    2.693465e+00
  1.202197e+01    2.709428e+00
  1.213309e+01    2.725400e+00
  1.224422e+01    2.735759e+00
  1.235535e+01    2.619329e+00
  1.246648e+01    2.659786e+00
  1.257761e+01    2.737381e+00
  1.268874e+01    2.823889e+00
  1.279987e+01    2.948294e+00
  1.291100e+01    3.656792e+00
  1.302213e+01    6.730332e+00
  1.313326e+01    1.480560e+01
  1.324438e+01    1.064330e+01
  1.335551e+01    4.392800e+00
  1.346664e+01    3.090408e+00
  1.357777e+01    2.766539e+00
  1.368890e+01    2.581971e+00
  1.380003e+01    2.465020e+00
  1.391116e+01    2.409054e+00
  1.402229e+01    2.391200e+00
  1.413342e+01    2.302364e+00
  1.424455e+01    2.320631e+00
  1.435568e+01    2.253747e+00
  1.446680e+01    2.245239e+00
  1.457793e+01    2.200582e+00
  1.468906e+01    2.193818e+00
  1.480019e+01    2.168458e+00
  1.491132e+01    2.245155e+00
  1.502245e+01    2.570207e+00
  1.513358e+01    3.824651e+00
  1.524471e+01    5.699196e+00
  1.535584e+01    3.710881e+00
  1.546697e+01    2.412065e+00
  1.557809e+01    2.152946e+00
  1.568922e+01    2.001084e+00
  1.580035e+01    1.974678e+00
  1.591148e+01    1.904701e+00
  1.602261e+01    1.834745e+00
  1.613374e+01    1.829833e+00
  1.624487e+01    1.837503e+00
  1.635600e+01    1.814658e+00
  1.646713e+01    1.763836e+00
  1.657826e+01    1.737586e+00
  1.668938e+01    1.715221e+00
  1.680051e+01    1.720270e+00
  1.691164e+01    1.692441e+00
  1.702277e+01    1.637794e+00
  1.713390e+01    1.655237e+00
  1.724503e+01    1.639794e+00
  1.735616e+01    1.618484e+00
  1.746729e+01    1.585175e+00
  1.757842e+01    1.570370e+00
  1.768955e+01    1.564822e+00
  1.780067e+01    1.545505e+00
  1.791180e+01    1.534676e+00
  1.802293e+01    1.501759e+00
  1.813406e+01    1.475415e+00
  1.824519e+01    1.482196e+00
  1.835632e+01    1.466076e+00
  1.846745e+01    1.457561e+00
  1.857858e+01    1.441541e+00
  1.868971e+01    1.416409e+00
  1.880084e+01    1.447165e+00
  1.891196e+01    1.407372e+00
  1.902309e+01    1.414385e+00
  1.913422e+01    1.396530e+00
  1.924535e+01    1.377398e+00
  1.935648e+01    1.344367e+00
  1.946761e+01    1.325045e+00
  1.957874e+01    1.320552e+00
  1.968987e+01    1.310722e+00
  1.980100e+01    1.309018e+00
  1.991213e+01    1.282629e+00
  2.002325e+01    1.296112e+00
  2.013438e+01    1.248919e+00
  2.024551e+01    1.248065e+00
  2.035664e+01    1.269904e+00
  2.046777e+01    1.237131e+00
  2.057890e+01    1.227933e+00
  2.069003e+01    1.231284e+00
  2.080116e+01    1.227019e+00
  2.091229e+01    1.213257e+00
  2.102342e+01    1.210099e+00
  2.113455e+01    1.240649e+00
  2.124567e+01    1.213512e+00
  2.135680e+01    1.283278e+00
  2.146793e+01    1.371833e+00
  2.157906e+01    1.632943e+00
  2.169019e+01    2.563419e+00
  2.180132e+01    5.940361e+00
  2.191245e+01    8.646315e+00
  2.202358e+01    3.570032e+00
  2.213471e+01    1.859655e+00
  2.224584e+01    1.424840e+00
  2.235696e+01    1.238108e+00
  2.246809e+01    1.175506e+00
  2.257922e+01    1.118079e+00
  2.269035e+01    1.084516e+00
  2.280148e+01    1.054722e+00
  2.291261e+01    1.063884e+00
  2.302374e+01    1.019892e+00
  2.313487e+01    1.010115e+00
  2.324600e+01    9.979544e-01
  2.335713e+01    9.857177e-01
  2.346825e+01    9.840254e-01
  2.357938e+01    9.528554e-01
  2.369051e+01    9.428277e-01
  2.380164e+01    9.144866e-01
  2.391277e+01    9.195316e-01
  2.402390e+01    8.823202e-01
  2.413503e+01    9.006343e-01
  2.424616e+01    8.778030e-01
  2.435729e+01    8.838658e-01
  2.446842e+01    8.727511e-01
  2.457954e+01    8.868870e-01
  2.469067e+01    9.095978e-01
  2.480180e+01    9.003769e-01
  2.491293e+01    9.006156e-01
  2.502406e+01    8.877257e-01
  2.513519e+01    9.083014e-01
  2.524632e+01    9.197528e-01
  2.535745e+01    9.617617e-01
  2.546858e+01    1.049382e+00
  2.557971e+01    1.162642e+00
  2.569083e+01    1.537641e+00
  2.580196e+01    2.826059e+00
  2.591309e+01    6.394759e+00
  2.602422e+01    5.192920e+00
  2.613535e+01    2.124806e+00
  2.624648e+01    1.353073e+00
  2.635761e+01    1.112475e+00
  2.646874e+01    1.034291e+00
  2.657987e+01    9.810793e-01
  2.669100e+01    9.676796e-01
  2.680212e+01    9.969504e-01
  2.691325e+01    9.904039e-01
  2.702438e+01    1.154321e+00
  2.713551e+01    1.763137e+00
  2.724664e+01    2.068069e+00
  2.735777e+01    1.259126e+00
  2.746890e+01    9.872422e-01
  2.758003e+01    9.259326e-01
  2.769116e+01    8.832138e-01
  2.780229e+01    8.803232e-01
  2.791342e+01    8.793041e-01
  2.802454e+01    8.593228e-01
  2.813567e+01    8.669615e-01
  2.824680e+01    8.508964e-01
  2.835793e+01    8.686027e-01
  2.846906e+01    8.337558e-01
  2.858019e+01    8.368837e-01
  2.869132e+01    8.519570e-01
  2.880245e+01    8.188785e-01
  2.891358e+01    8.023990e-01
  2.902471e+01    7.975297e-01
  2.913583e+01    8.194326e-01
  2.924696e+01    8.042051e-01
  2.935809e+01    7.771087e-01
  2.946922e+01    8.052288e-01
  2.958035e+01    8.018729e-01
  2.969148e+01    8.073786e-01
  2.980261e+01    8.003365e-01
  2.991374e+01    7.888654e-01
  3.002487e+01    8.075811e-01
  3.013600e+01    8.101472e-01
  3.024712e+01    7.928423e-01
  3.035825e+01    7.937759e-01
  3.046938e+01    7.874978e-01
  3.058051e+01    7.904814e-01
  3.069164e+01    7.735225e-01
  3.080277e+01    7.819737e-01
  3.091390e+01    7.766526e-01
  3.102503e+01    7.833903e-01
  3.113616e+01    8.052695e-01
  3.124729e+01    7.962608e-01
  3.135841e+01    8.098574e-01
  3.146954e+01    8.195153e-01
  3.158067e+01    8.565814e-01
  3.169180e+01    9.984042e-01
  3.180293e+01    1.480827e+00
  3.191406e+01    2.060990e+00
  3.202519e+01    1.306225e+00
  3.213632e+01    9.439473e-01
  3.224745e+01    8.470266e-01
  3.235858e+01    7.875777e-01
  3.246970e+01    7.717355e-01
  3.254908e+01    7.650052e-01