File: XRD/Reaction conditions/2024-07-27_003_Ru-CGO-ex_Reaction_dwell_000023_data_000003.dat
# == pyFAI calibration ==
# Distance Sample to Detector: 0.4 m
# PONI: 9.750e-02, 1.135e-01 m
# Rotations: -0.000175 0.000000 -0.000000 rad
#
# == Fit2d calibration ==
# Distance Sample-beamCenter: 400.000 mm
# Center: x=1514.000, y=1300.000 pix
# Tilt: 0.010 deg  TiltPlanRot: 0.010 deg
#
# Detector Detector	 Spline= None	 PixelSize= 7.500e-05, 7.500e-05 m
#    Detector has a mask: False
#    Detector has a dark current: False
#    detector has a flat field: False
#
# Wavelength: 6.888e-11 m
# Mask applied: user provided
# Dark current applied: False
# Flat field applied: False
# Polarization factor: 0.99
# Normalization factor: 1.0
# --> /home/myspot/data/2024_07_Rosario/Ru-CGO-ex/2024-07-27_003_Ru-CGO-ex_Reaction_dwell_000023_data_000003.dat
#       q_nm^-1             I
  2.003187e-02    2.226973e-02
  1.311609e-01    1.873365e-02
  2.422899e-01    2.241286e-02
  3.534189e-01    5.661423e-02
  4.645479e-01    7.090886e-02
  5.756770e-01    3.320339e-02
  6.868060e-01    5.253021e-02
  7.979350e-01    1.701874e-01
  9.090640e-01    6.066321e-01
  1.020193e+00    1.245258e+00
  1.131322e+00    1.688521e+00
  1.242451e+00    2.406296e+00
  1.353580e+00    2.836715e+00
  1.464709e+00    3.037652e+00
  1.575838e+00    3.234260e+00
  1.686967e+00    3.117319e+00
  1.798096e+00    3.116787e+00
  1.909225e+00    3.075295e+00
  2.020354e+00    3.058523e+00
  2.131483e+00    3.024462e+00
  2.242612e+00    3.044822e+00
  2.353741e+00    3.267462e+00
  2.464870e+00    3.203451e+00
  2.575999e+00    3.311394e+00
  2.687128e+00    3.265554e+00
  2.798257e+00    3.276692e+00
  2.909386e+00    3.242740e+00
  3.020515e+00    3.376100e+00
  3.131644e+00    3.486057e+00
  3.242773e+00    3.433959e+00
  3.353902e+00    3.476797e+00
  3.465031e+00    3.455852e+00
  3.576160e+00    3.466110e+00
  3.687289e+00    3.378127e+00
  3.798418e+00    3.521902e+00
  3.909547e+00    3.576520e+00
  4.020676e+00    3.551647e+00
  4.131806e+00    3.570855e+00
  4.242935e+00    3.570363e+00
  4.354064e+00    3.699084e+00
  4.465193e+00    3.632545e+00
  4.576322e+00    3.660889e+00
  4.687451e+00    3.626424e+00
  4.798580e+00    3.662410e+00
  4.909709e+00    3.756151e+00
  5.020838e+00    3.776975e+00
  5.131967e+00    3.593597e+00
  5.243096e+00    3.660361e+00
  5.354225e+00    3.688146e+00
  5.465354e+00    3.591101e+00
  5.576483e+00    3.591819e+00
  5.687612e+00    3.577583e+00
  5.798741e+00    3.608701e+00
  5.909870e+00    3.574041e+00
  6.020999e+00    3.531812e+00
  6.132128e+00    3.542891e+00
  6.243257e+00    3.579303e+00
  6.354386e+00    3.562997e+00
  6.465515e+00    3.565217e+00
  6.576644e+00    3.588580e+00
  6.687773e+00    3.562363e+00
  6.798902e+00    3.584659e+00
  6.910031e+00    3.616578e+00
  7.021160e+00    3.547134e+00
  7.132289e+00    3.515416e+00
  7.243418e+00    3.586016e+00
  7.354547e+00    3.518138e+00
  7.465676e+00    3.530837e+00
  7.576805e+00    3.515201e+00
  7.687934e+00    3.495142e+00
  7.799063e+00    3.392730e+00
  7.910192e+00    3.426603e+00
  8.021321e+00    3.455281e+00
  8.132450e+00    3.419322e+00
  8.243579e+00    3.518526e+00
  8.354708e+00    3.398710e+00
  8.465837e+00    3.464256e+00
  8.576966e+00    3.428741e+00
  8.688095e+00    3.398805e+00
  8.799224e+00    3.314329e+00
  8.910353e+00    3.356632e+00
  9.021482e+00    3.273459e+00
  9.132611e+00    3.287516e+00
  9.243740e+00    3.256371e+00
  9.354869e+00    3.174084e+00
  9.465998e+00    3.167468e+00
  9.577127e+00    3.227573e+00
  9.688256e+00    3.171843e+00
  9.799385e+00    3.246879e+00
  9.910514e+00    3.111043e+00
  1.002164e+01    3.128057e+00
  1.013277e+01    3.103592e+00
  1.024390e+01    3.097440e+00
  1.035503e+01    3.030043e+00
  1.046616e+01    3.011980e+00
  1.057729e+01    3.027639e+00
  1.068842e+01    2.979649e+00
  1.079955e+01    2.965320e+00
  1.091068e+01    2.932160e+00
  1.102180e+01    2.906979e+00
  1.113293e+01    2.866580e+00
  1.124406e+01    2.827823e+00
  1.135519e+01    2.826246e+00
  1.146632e+01    2.836396e+00
  1.157745e+01    2.760724e+00
  1.168858e+01    2.800441e+00
  1.179971e+01    2.820391e+00
  1.191084e+01    2.715783e+00
  1.202197e+01    2.691910e+00
  1.213309e+01    2.713278e+00
  1.224422e+01    2.739743e+00
  1.235535e+01    2.720082e+00
  1.246648e+01    2.696963e+00
  1.257761e+01    2.765726e+00
  1.268874e+01    2.831360e+00
  1.279987e+01    3.031071e+00
  1.291100e+01    3.650095e+00
  1.302213e+01    6.675199e+00
  1.313326e+01    1.470671e+01
  1.324438e+01    1.078190e+01
  1.335551e+01    4.411737e+00
  1.346664e+01    3.140034e+00
  1.357777e+01    2.774353e+00
  1.368890e+01    2.565418e+00
  1.380003e+01    2.481755e+00
  1.391116e+01    2.428593e+00
  1.402229e+01    2.334641e+00
  1.413342e+01    2.304955e+00
  1.424455e+01    2.290628e+00
  1.435568e+01    2.271876e+00
  1.446680e+01    2.207271e+00
  1.457793e+01    2.220449e+00
  1.468906e+01    2.226815e+00
  1.480019e+01    2.179000e+00
  1.491132e+01    2.265732e+00
  1.502245e+01    2.541325e+00
  1.513358e+01    3.745527e+00
  1.524471e+01    5.668182e+00
  1.535584e+01    3.829058e+00
  1.546697e+01    2.435771e+00
  1.557809e+01    2.092707e+00
  1.568922e+01    2.007195e+00
  1.580035e+01    1.961680e+00
  1.591148e+01    1.941329e+00
  1.602261e+01    1.868413e+00
  1.613374e+01    1.864577e+00
  1.624487e+01    1.820632e+00
  1.635600e+01    1.803371e+00
  1.646713e+01    1.796602e+00
  1.657826e+01    1.713683e+00
  1.668938e+01    1.732872e+00
  1.680051e+01    1.699811e+00
  1.691164e+01    1.686898e+00
  1.702277e+01    1.689590e+00
  1.713390e+01    1.659002e+00
  1.724503e+01    1.659007e+00
  1.735616e+01    1.620015e+00
  1.746729e+01    1.593410e+00
  1.757842e+01    1.581794e+00
  1.768955e+01    1.571079e+00
  1.780067e+01    1.533247e+00
  1.791180e+01    1.503146e+00
  1.802293e+01    1.534624e+00
  1.813406e+01    1.489725e+00
  1.824519e+01    1.477156e+00
  1.835632e+01    1.473771e+00
  1.846745e+01    1.423379e+00
  1.857858e+01    1.437040e+00
  1.868971e+01    1.429960e+00
  1.880084e+01    1.422393e+00
  1.891196e+01    1.373616e+00
  1.902309e+01    1.412258e+00
  1.913422e+01    1.343747e+00
  1.924535e+01    1.373920e+00
  1.935648e+01    1.351434e+00
  1.946761e+01    1.335305e+00
  1.957874e+01    1.324360e+00
  1.968987e+01    1.303814e+00
  1.980100e+01    1.300323e+00
  1.991213e+01    1.298182e+00
  2.002325e+01    1.279776e+00
  2.013438e+01    1.301684e+00
  2.024551e+01    1.250927e+00
  2.035664e+01    1.272131e+00
  2.046777e+01    1.246938e+00
  2.057890e+01    1.219083e+00
  2.069003e+01    1.219766e+00
  2.080116e+01    1.245720e+00
  2.091229e+01    1.197933e+00
  2.102342e+01    1.192018e+00
  2.113455e+01    1.262934e+00
  2.124567e+01    1.252410e+00
  2.135680e+01    1.276577e+00
  2.146793e+01    1.365906e+00
  2.157906e+01    1.623373e+00
  2.169019e+01    2.503689e+00
  2.180132e+01    5.750839e+00
  2.191245e+01    8.785330e+00
  2.202358e+01    3.682089e+00
  2.213471e+01    1.886753e+00
  2.224584e+01    1.426712e+00
  2.235696e+01    1.273070e+00
  2.246809e+01    1.183740e+00
  2.257922e+01    1.123803e+00
  2.269035e+01    1.116649e+00
  2.280148e+01    1.056534e+00
  2.291261e+01    1.039689e+00
  2.302374e+01    1.037569e+00
  2.313487e+01    1.005326e+00
  2.324600e+01    9.875574e-01
  2.335713e+01    9.917527e-01
  2.346825e+01    9.644876e-01
  2.357938e+01    9.544116e-01
  2.369051e+01    9.648038e-01
  2.380164e+01    9.311934e-01
  2.391277e+01    9.262698e-01
  2.402390e+01    9.151893e-01
  2.413503e+01    8.779300e-01
  2.424616e+01    8.903378e-01
  2.435729e+01    8.891547e-01
  2.446842e+01    8.983935e-01
  2.457954e+01    8.908446e-01
  2.469067e+01    9.113837e-01
  2.480180e+01    8.959799e-01
  2.491293e+01    8.847243e-01
  2.502406e+01    8.899007e-01
  2.513519e+01    9.308024e-01
  2.524632e+01    9.387082e-01
  2.535745e+01    9.625515e-01
  2.546858e+01    1.036545e+00
  2.557971e+01    1.162612e+00
  2.569083e+01    1.481107e+00
  2.580196e+01    2.742072e+00
  2.591309e+01    6.310447e+00
  2.602422e+01    5.415815e+00
  2.613535e+01    2.172753e+00
  2.624648e+01    1.380004e+00
  2.635761e+01    1.117877e+00
  2.646874e+01    1.038098e+00
  2.657987e+01    9.762269e-01
  2.669100e+01    9.686732e-01
  2.680212e+01    9.605425e-01
  2.691325e+01    1.038210e+00
  2.702438e+01    1.150577e+00
  2.713551e+01    1.680902e+00
  2.724664e+01    2.106081e+00
  2.735777e+01    1.313572e+00
  2.746890e+01    1.022996e+00
  2.758003e+01    9.282838e-01
  2.769116e+01    8.959424e-01
  2.780229e+01    8.854768e-01
  2.791342e+01    8.871465e-01
  2.802454e+01    8.825116e-01
  2.813567e+01    8.490391e-01
  2.824680e+01    8.325747e-01
  2.835793e+01    8.520220e-01
  2.846906e+01    8.375758e-01
  2.858019e+01    8.361404e-01
  2.869132e+01    8.262163e-01
  2.880245e+01    8.218939e-01
  2.891358e+01    8.287084e-01
  2.902471e+01    8.255384e-01
  2.913583e+01    8.147629e-01
  2.924696e+01    8.149284e-01
  2.935809e+01    8.059599e-01
  2.946922e+01    8.059731e-01
  2.958035e+01    8.058817e-01
  2.969148e+01    8.179376e-01
  2.980261e+01    7.938916e-01
  2.991374e+01    8.105468e-01
  3.002487e+01    8.272380e-01
  3.013600e+01    7.899464e-01
  3.024712e+01    7.878909e-01
  3.035825e+01    8.022214e-01
  3.046938e+01    7.803996e-01
  3.058051e+01    7.686149e-01
  3.069164e+01    8.016767e-01
  3.080277e+01    7.631040e-01
  3.091390e+01    7.868978e-01
  3.102503e+01    8.008643e-01
  3.113616e+01    8.048160e-01
  3.124729e+01    8.085287e-01
  3.135841e+01    7.964231e-01
  3.146954e+01    8.310274e-01
  3.158067e+01    8.465641e-01
  3.169180e+01    9.740846e-01
  3.180293e+01    1.426077e+00
  3.191406e+01    2.105340e+00
  3.202519e+01    1.362424e+00
  3.213632e+01    9.514911e-01
  3.224745e+01    8.637130e-01
  3.235858e+01    8.239255e-01
  3.246970e+01    7.893113e-01
  3.254908e+01    7.652209e-01