File: XRD/Reaction conditions/2024-07-27_003_Ru-CGO-ex_Reaction_dwell_000023_data_000149.dat
# == pyFAI calibration ==
# Distance Sample to Detector: 0.4 m
# PONI: 9.750e-02, 1.135e-01 m
# Rotations: -0.000175 0.000000 -0.000000 rad
#
# == Fit2d calibration ==
# Distance Sample-beamCenter: 400.000 mm
# Center: x=1514.000, y=1300.000 pix
# Tilt: 0.010 deg  TiltPlanRot: 0.010 deg
#
# Detector Detector	 Spline= None	 PixelSize= 7.500e-05, 7.500e-05 m
#    Detector has a mask: False
#    Detector has a dark current: False
#    detector has a flat field: False
#
# Wavelength: 6.888e-11 m
# Mask applied: user provided
# Dark current applied: False
# Flat field applied: False
# Polarization factor: 0.99
# Normalization factor: 1.0
# --> /home/myspot/data/2024_07_Rosario/Ru-CGO-ex/2024-07-27_003_Ru-CGO-ex_Reaction_dwell_000023_data_000149.dat
#       q_nm^-1             I
  2.003187e-02    0.000000e+00
  1.311609e-01    4.764454e-02
  2.422899e-01    3.384357e-02
  3.534189e-01    3.987879e-02
  4.645479e-01    6.046303e-02
  5.756770e-01    3.985541e-02
  6.868060e-01    2.259571e-02
  7.979350e-01    2.092512e-01
  9.090640e-01    6.128485e-01
  1.020193e+00    1.238661e+00
  1.131322e+00    1.492268e+00
  1.242451e+00    2.380989e+00
  1.353580e+00    2.858454e+00
  1.464709e+00    2.946627e+00
  1.575838e+00    3.070469e+00
  1.686967e+00    3.158396e+00
  1.798096e+00    2.993888e+00
  1.909225e+00    3.126942e+00
  2.020354e+00    2.962449e+00
  2.131483e+00    2.977773e+00
  2.242612e+00    3.100915e+00
  2.353741e+00    3.125911e+00
  2.464870e+00    2.999366e+00
  2.575999e+00    3.210462e+00
  2.687128e+00    3.252886e+00
  2.798257e+00    3.330906e+00
  2.909386e+00    3.357348e+00
  3.020515e+00    3.401393e+00
  3.131644e+00    3.334966e+00
  3.242773e+00    3.374505e+00
  3.353902e+00    3.435302e+00
  3.465031e+00    3.432423e+00
  3.576160e+00    3.453372e+00
  3.687289e+00    3.511217e+00
  3.798418e+00    3.415872e+00
  3.909547e+00    3.424728e+00
  4.020676e+00    3.525639e+00
  4.131806e+00    3.561244e+00
  4.242935e+00    3.506534e+00
  4.354064e+00    3.514541e+00
  4.465193e+00    3.578811e+00
  4.576322e+00    3.624974e+00
  4.687451e+00    3.607775e+00
  4.798580e+00    3.598661e+00
  4.909709e+00    3.679700e+00
  5.020838e+00    3.559406e+00
  5.131967e+00    3.581637e+00
  5.243096e+00    3.665289e+00
  5.354225e+00    3.598540e+00
  5.465354e+00    3.597546e+00
  5.576483e+00    3.666111e+00
  5.687612e+00    3.576528e+00
  5.798741e+00    3.554816e+00
  5.909870e+00    3.482286e+00
  6.020999e+00    3.457679e+00
  6.132128e+00    3.630692e+00
  6.243257e+00    3.596758e+00
  6.354386e+00    3.549154e+00
  6.465515e+00    3.623212e+00
  6.576644e+00    3.572697e+00
  6.687773e+00    3.510568e+00
  6.798902e+00    3.469397e+00
  6.910031e+00    3.533676e+00
  7.021160e+00    3.503777e+00
  7.132289e+00    3.431881e+00
  7.243418e+00    3.442217e+00
  7.354547e+00    3.536087e+00
  7.465676e+00    3.466929e+00
  7.576805e+00    3.537081e+00
  7.687934e+00    3.499642e+00
  7.799063e+00    3.480361e+00
  7.910192e+00    3.409429e+00
  8.021321e+00    3.459097e+00
  8.132450e+00    3.467400e+00
  8.243579e+00    3.451318e+00
  8.354708e+00    3.420977e+00
  8.465837e+00    3.339868e+00
  8.576966e+00    3.271509e+00
  8.688095e+00    3.348334e+00
  8.799224e+00    3.327808e+00
  8.910353e+00    3.299142e+00
  9.021482e+00    3.262391e+00
  9.132611e+00    3.284601e+00
  9.243740e+00    3.213482e+00
  9.354869e+00    3.187303e+00
  9.465998e+00    3.207042e+00
  9.577127e+00    3.190905e+00
  9.688256e+00    3.122378e+00
  9.799385e+00    3.162391e+00
  9.910514e+00    3.208125e+00
  1.002164e+01    3.147670e+00
  1.013277e+01    3.048062e+00
  1.024390e+01    3.038590e+00
  1.035503e+01    3.023839e+00
  1.046616e+01    3.013154e+00
  1.057729e+01    3.054455e+00
  1.068842e+01    2.940949e+00
  1.079955e+01    3.010037e+00
  1.091068e+01    2.957946e+00
  1.102180e+01    2.854475e+00
  1.113293e+01    2.914664e+00
  1.124406e+01    2.853192e+00
  1.135519e+01    2.790921e+00
  1.146632e+01    2.785251e+00
  1.157745e+01    2.833844e+00
  1.168858e+01    2.732391e+00
  1.179971e+01    2.736898e+00
  1.191084e+01    2.700641e+00
  1.202197e+01    2.714540e+00
  1.213309e+01    2.708767e+00
  1.224422e+01    2.688162e+00
  1.235535e+01    2.700943e+00
  1.246648e+01    2.702511e+00
  1.257761e+01    2.725145e+00
  1.268874e+01    2.774059e+00
  1.279987e+01    2.996863e+00
  1.291100e+01    3.577299e+00
  1.302213e+01    6.663580e+00
  1.313326e+01    1.459259e+01
  1.324438e+01    1.061741e+01
  1.335551e+01    4.380999e+00
  1.346664e+01    3.129466e+00
  1.357777e+01    2.779930e+00
  1.368890e+01    2.531987e+00
  1.380003e+01    2.443480e+00
  1.391116e+01    2.419855e+00
  1.402229e+01    2.380324e+00
  1.413342e+01    2.369927e+00
  1.424455e+01    2.292558e+00
  1.435568e+01    2.229164e+00
  1.446680e+01    2.240713e+00
  1.457793e+01    2.232421e+00
  1.468906e+01    2.241618e+00
  1.480019e+01    2.207648e+00
  1.491132e+01    2.230999e+00
  1.502245e+01    2.469153e+00
  1.513358e+01    3.732345e+00
  1.524471e+01    5.667244e+00
  1.535584e+01    3.760682e+00
  1.546697e+01    2.440782e+00
  1.557809e+01    2.085950e+00
  1.568922e+01    2.022276e+00
  1.580035e+01    1.916078e+00
  1.591148e+01    1.902929e+00
  1.602261e+01    1.888418e+00
  1.613374e+01    1.825503e+00
  1.624487e+01    1.815733e+00
  1.635600e+01    1.788886e+00
  1.646713e+01    1.785494e+00
  1.657826e+01    1.746253e+00
  1.668938e+01    1.713322e+00
  1.680051e+01    1.695569e+00
  1.691164e+01    1.681216e+00
  1.702277e+01    1.634717e+00
  1.713390e+01    1.637552e+00
  1.724503e+01    1.605160e+00
  1.735616e+01    1.590407e+00
  1.746729e+01    1.624134e+00
  1.757842e+01    1.595740e+00
  1.768955e+01    1.560856e+00
  1.780067e+01    1.531017e+00
  1.791180e+01    1.503166e+00
  1.802293e+01    1.495345e+00
  1.813406e+01    1.498540e+00
  1.824519e+01    1.463509e+00
  1.835632e+01    1.445731e+00
  1.846745e+01    1.436789e+00
  1.857858e+01    1.447794e+00
  1.868971e+01    1.385922e+00
  1.880084e+01    1.393585e+00
  1.891196e+01    1.394209e+00
  1.902309e+01    1.354242e+00
  1.913422e+01    1.365095e+00
  1.924535e+01    1.369183e+00
  1.935648e+01    1.339242e+00
  1.946761e+01    1.311179e+00
  1.957874e+01    1.310241e+00
  1.968987e+01    1.305469e+00
  1.980100e+01    1.270466e+00
  1.991213e+01    1.281205e+00
  2.002325e+01    1.267332e+00
  2.013438e+01    1.277066e+00
  2.024551e+01    1.262807e+00
  2.035664e+01    1.251699e+00
  2.046777e+01    1.244969e+00
  2.057890e+01    1.220334e+00
  2.069003e+01    1.212840e+00
  2.080116e+01    1.206449e+00
  2.091229e+01    1.220844e+00
  2.102342e+01    1.218929e+00
  2.113455e+01    1.215928e+00
  2.124567e+01    1.232829e+00
  2.135680e+01    1.291138e+00
  2.146793e+01    1.365818e+00
  2.157906e+01    1.598466e+00
  2.169019e+01    2.500884e+00
  2.180132e+01    5.857263e+00
  2.191245e+01    8.719391e+00
  2.202358e+01    3.587574e+00
  2.213471e+01    1.860959e+00
  2.224584e+01    1.418135e+00
  2.235696e+01    1.238713e+00
  2.246809e+01    1.172808e+00
  2.257922e+01    1.090760e+00
  2.269035e+01    1.058663e+00
  2.280148e+01    1.051775e+00
  2.291261e+01    1.030323e+00
  2.302374e+01    1.005926e+00
  2.313487e+01    1.004369e+00
  2.324600e+01    9.702312e-01
  2.335713e+01    9.658569e-01
  2.346825e+01    9.720665e-01
  2.357938e+01    9.551756e-01
  2.369051e+01    9.420928e-01
  2.380164e+01    9.312890e-01
  2.391277e+01    8.980674e-01
  2.402390e+01    9.084191e-01
  2.413503e+01    8.836396e-01
  2.424616e+01    8.735369e-01
  2.435729e+01    8.905959e-01
  2.446842e+01    8.713349e-01
  2.457954e+01    8.861646e-01
  2.469067e+01    9.132879e-01
  2.480180e+01    9.078137e-01
  2.491293e+01    8.994054e-01
  2.502406e+01    9.020324e-01
  2.513519e+01    8.957735e-01
  2.524632e+01    9.326975e-01
  2.535745e+01    9.685168e-01
  2.546858e+01    1.016757e+00
  2.557971e+01    1.171619e+00
  2.569083e+01    1.495619e+00
  2.580196e+01    2.830084e+00
  2.591309e+01    6.272369e+00
  2.602422e+01    5.257589e+00
  2.613535e+01    2.127070e+00
  2.624648e+01    1.340995e+00
  2.635761e+01    1.083132e+00
  2.646874e+01    1.026362e+00
  2.657987e+01    9.824194e-01
  2.669100e+01    1.006663e+00
  2.680212e+01    9.775668e-01
  2.691325e+01    9.950877e-01
  2.702438e+01    1.116535e+00
  2.713551e+01    1.721024e+00
  2.724664e+01    2.069989e+00
  2.735777e+01    1.282722e+00
  2.746890e+01    1.021236e+00
  2.758003e+01    9.416273e-01
  2.769116e+01    8.934309e-01
  2.780229e+01    9.068773e-01
  2.791342e+01    8.715258e-01
  2.802454e+01    8.508437e-01
  2.813567e+01    8.309854e-01
  2.824680e+01    8.447499e-01
  2.835793e+01    8.339604e-01
  2.846906e+01    8.295876e-01
  2.858019e+01    8.473554e-01
  2.869132e+01    8.276315e-01
  2.880245e+01    8.278314e-01
  2.891358e+01    8.233975e-01
  2.902471e+01    8.125713e-01
  2.913583e+01    8.100569e-01
  2.924696e+01    8.051170e-01
  2.935809e+01    8.234377e-01
  2.946922e+01    8.010092e-01
  2.958035e+01    7.937743e-01
  2.969148e+01    8.082608e-01
  2.980261e+01    7.739729e-01
  2.991374e+01    7.899244e-01
  3.002487e+01    8.019468e-01
  3.013600e+01    7.951470e-01
  3.024712e+01    7.784402e-01
  3.035825e+01    7.782796e-01
  3.046938e+01    7.824721e-01
  3.058051e+01    8.143520e-01
  3.069164e+01    7.729872e-01
  3.080277e+01    7.647431e-01
  3.091390e+01    7.774465e-01
  3.102503e+01    7.817327e-01
  3.113616e+01    7.899584e-01
  3.124729e+01    7.756997e-01
  3.135841e+01    7.979044e-01
  3.146954e+01    8.107094e-01
  3.158067e+01    8.750700e-01
  3.169180e+01    9.887933e-01
  3.180293e+01    1.456551e+00
  3.191406e+01    2.091241e+00
  3.202519e+01    1.318142e+00
  3.213632e+01    9.278942e-01
  3.224745e+01    8.299438e-01
  3.235858e+01    7.935390e-01
  3.246970e+01    7.882079e-01
  3.254908e+01    7.596462e-01