File: XRD/Reaction conditions/2024-07-27_003_Ru-CGO-ex_Reaction_dwell_000023_data_000034.dat
# == pyFAI calibration ==
# Distance Sample to Detector: 0.4 m
# PONI: 9.750e-02, 1.135e-01 m
# Rotations: -0.000175 0.000000 -0.000000 rad
#
# == Fit2d calibration ==
# Distance Sample-beamCenter: 400.000 mm
# Center: x=1514.000, y=1300.000 pix
# Tilt: 0.010 deg  TiltPlanRot: 0.010 deg
#
# Detector Detector	 Spline= None	 PixelSize= 7.500e-05, 7.500e-05 m
#    Detector has a mask: False
#    Detector has a dark current: False
#    detector has a flat field: False
#
# Wavelength: 6.888e-11 m
# Mask applied: user provided
# Dark current applied: False
# Flat field applied: False
# Polarization factor: 0.99
# Normalization factor: 1.0
# --> /home/myspot/data/2024_07_Rosario/Ru-CGO-ex/2024-07-27_003_Ru-CGO-ex_Reaction_dwell_000023_data_000034.dat
#       q_nm^-1             I
  2.003187e-02    3.738268e-01
  1.311609e-01    6.925630e-02
  2.422899e-01    1.623676e-02
  3.534189e-01    3.160387e-02
  4.645479e-01    2.822948e-02
  5.756770e-01    4.646244e-02
  6.868060e-01    1.795938e-02
  7.979350e-01    1.514981e-01
  9.090640e-01    6.755572e-01
  1.020193e+00    1.231606e+00
  1.131322e+00    1.627754e+00
  1.242451e+00    2.379863e+00
  1.353580e+00    2.868247e+00
  1.464709e+00    3.150406e+00
  1.575838e+00    3.164948e+00
  1.686967e+00    3.051520e+00
  1.798096e+00    3.178923e+00
  1.909225e+00    3.089544e+00
  2.020354e+00    3.032494e+00
  2.131483e+00    3.249512e+00
  2.242612e+00    3.134618e+00
  2.353741e+00    3.201884e+00
  2.464870e+00    3.135578e+00
  2.575999e+00    3.201472e+00
  2.687128e+00    3.278377e+00
  2.798257e+00    3.238844e+00
  2.909386e+00    3.216250e+00
  3.020515e+00    3.381090e+00
  3.131644e+00    3.393814e+00
  3.242773e+00    3.450882e+00
  3.353902e+00    3.240561e+00
  3.465031e+00    3.397627e+00
  3.576160e+00    3.461989e+00
  3.687289e+00    3.430232e+00
  3.798418e+00    3.537078e+00
  3.909547e+00    3.518367e+00
  4.020676e+00    3.596469e+00
  4.131806e+00    3.535167e+00
  4.242935e+00    3.544783e+00
  4.354064e+00    3.659811e+00
  4.465193e+00    3.601892e+00
  4.576322e+00    3.640583e+00
  4.687451e+00    3.631956e+00
  4.798580e+00    3.723618e+00
  4.909709e+00    3.593071e+00
  5.020838e+00    3.592350e+00
  5.131967e+00    3.581371e+00
  5.243096e+00    3.650374e+00
  5.354225e+00    3.700674e+00
  5.465354e+00    3.643140e+00
  5.576483e+00    3.611018e+00
  5.687612e+00    3.656783e+00
  5.798741e+00    3.571038e+00
  5.909870e+00    3.577748e+00
  6.020999e+00    3.447368e+00
  6.132128e+00    3.636286e+00
  6.243257e+00    3.557986e+00
  6.354386e+00    3.534530e+00
  6.465515e+00    3.580210e+00
  6.576644e+00    3.509502e+00
  6.687773e+00    3.532991e+00
  6.798902e+00    3.557836e+00
  6.910031e+00    3.531159e+00
  7.021160e+00    3.535240e+00
  7.132289e+00    3.499611e+00
  7.243418e+00    3.479437e+00
  7.354547e+00    3.539927e+00
  7.465676e+00    3.449248e+00
  7.576805e+00    3.504771e+00
  7.687934e+00    3.474509e+00
  7.799063e+00    3.372725e+00
  7.910192e+00    3.434489e+00
  8.021321e+00    3.409220e+00
  8.132450e+00    3.438815e+00
  8.243579e+00    3.416799e+00
  8.354708e+00    3.370555e+00
  8.465837e+00    3.395035e+00
  8.576966e+00    3.381739e+00
  8.688095e+00    3.368436e+00
  8.799224e+00    3.332101e+00
  8.910353e+00    3.249849e+00
  9.021482e+00    3.284133e+00
  9.132611e+00    3.219896e+00
  9.243740e+00    3.295192e+00
  9.354869e+00    3.205291e+00
  9.465998e+00    3.226659e+00
  9.577127e+00    3.191124e+00
  9.688256e+00    3.186442e+00
  9.799385e+00    3.155418e+00
  9.910514e+00    3.110283e+00
  1.002164e+01    3.090001e+00
  1.013277e+01    3.146858e+00
  1.024390e+01    3.078142e+00
  1.035503e+01    2.991492e+00
  1.046616e+01    3.017641e+00
  1.057729e+01    3.004981e+00
  1.068842e+01    2.965800e+00
  1.079955e+01    2.957846e+00
  1.091068e+01    2.951847e+00
  1.102180e+01    2.937462e+00
  1.113293e+01    2.825451e+00
  1.124406e+01    2.852324e+00
  1.135519e+01    2.828360e+00
  1.146632e+01    2.818331e+00
  1.157745e+01    2.809604e+00
  1.168858e+01    2.809862e+00
  1.179971e+01    2.694875e+00
  1.191084e+01    2.715578e+00
  1.202197e+01    2.682516e+00
  1.213309e+01    2.662974e+00
  1.224422e+01    2.660274e+00
  1.235535e+01    2.720761e+00
  1.246648e+01    2.683966e+00
  1.257761e+01    2.718692e+00
  1.268874e+01    2.820397e+00
  1.279987e+01    2.991100e+00
  1.291100e+01    3.686261e+00
  1.302213e+01    6.777230e+00
  1.313326e+01    1.484727e+01
  1.324438e+01    1.074729e+01
  1.335551e+01    4.425433e+00
  1.346664e+01    3.083734e+00
  1.357777e+01    2.707920e+00
  1.368890e+01    2.583220e+00
  1.380003e+01    2.496563e+00
  1.391116e+01    2.438727e+00
  1.402229e+01    2.346333e+00
  1.413342e+01    2.340544e+00
  1.424455e+01    2.282637e+00
  1.435568e+01    2.224134e+00
  1.446680e+01    2.234864e+00
  1.457793e+01    2.218162e+00
  1.468906e+01    2.218736e+00
  1.480019e+01    2.188936e+00
  1.491132e+01    2.254119e+00
  1.502245e+01    2.536050e+00
  1.513358e+01    3.828064e+00
  1.524471e+01    5.739410e+00
  1.535584e+01    3.768808e+00
  1.546697e+01    2.425518e+00
  1.557809e+01    2.153235e+00
  1.568922e+01    2.018393e+00
  1.580035e+01    1.887900e+00
  1.591148e+01    1.930623e+00
  1.602261e+01    1.862548e+00
  1.613374e+01    1.837890e+00
  1.624487e+01    1.845808e+00
  1.635600e+01    1.820380e+00
  1.646713e+01    1.775549e+00
  1.657826e+01    1.719712e+00
  1.668938e+01    1.719287e+00
  1.680051e+01    1.702830e+00
  1.691164e+01    1.663946e+00
  1.702277e+01    1.665125e+00
  1.713390e+01    1.659972e+00
  1.724503e+01    1.647424e+00
  1.735616e+01    1.641245e+00
  1.746729e+01    1.576378e+00
  1.757842e+01    1.602880e+00
  1.768955e+01    1.571417e+00
  1.780067e+01    1.542605e+00
  1.791180e+01    1.514572e+00
  1.802293e+01    1.534296e+00
  1.813406e+01    1.475395e+00
  1.824519e+01    1.478599e+00
  1.835632e+01    1.472347e+00
  1.846745e+01    1.475164e+00
  1.857858e+01    1.402879e+00
  1.868971e+01    1.428815e+00
  1.880084e+01    1.409168e+00
  1.891196e+01    1.400568e+00
  1.902309e+01    1.377594e+00
  1.913422e+01    1.378816e+00
  1.924535e+01    1.346966e+00
  1.935648e+01    1.363186e+00
  1.946761e+01    1.327271e+00
  1.957874e+01    1.328480e+00
  1.968987e+01    1.288017e+00
  1.980100e+01    1.297037e+00
  1.991213e+01    1.322041e+00
  2.002325e+01    1.295687e+00
  2.013438e+01    1.269453e+00
  2.024551e+01    1.276575e+00
  2.035664e+01    1.233255e+00
  2.046777e+01    1.271535e+00
  2.057890e+01    1.238930e+00
  2.069003e+01    1.238006e+00
  2.080116e+01    1.229614e+00
  2.091229e+01    1.227240e+00
  2.102342e+01    1.220472e+00
  2.113455e+01    1.202692e+00
  2.124567e+01    1.243045e+00
  2.135680e+01    1.308770e+00
  2.146793e+01    1.389315e+00
  2.157906e+01    1.628799e+00
  2.169019e+01    2.517911e+00
  2.180132e+01    5.880781e+00
  2.191245e+01    8.803390e+00
  2.202358e+01    3.602166e+00
  2.213471e+01    1.875475e+00
  2.224584e+01    1.435770e+00
  2.235696e+01    1.225147e+00
  2.246809e+01    1.149632e+00
  2.257922e+01    1.093921e+00
  2.269035e+01    1.085750e+00
  2.280148e+01    1.040939e+00
  2.291261e+01    1.039777e+00
  2.302374e+01    1.042652e+00
  2.313487e+01    1.015613e+00
  2.324600e+01    9.911994e-01
  2.335713e+01    9.753922e-01
  2.346825e+01    9.472499e-01
  2.357938e+01    9.505825e-01
  2.369051e+01    9.508288e-01
  2.380164e+01    9.422327e-01
  2.391277e+01    9.043450e-01
  2.402390e+01    8.712461e-01
  2.413503e+01    8.641061e-01
  2.424616e+01    9.015417e-01
  2.435729e+01    8.948311e-01
  2.446842e+01    8.866227e-01
  2.457954e+01    8.852752e-01
  2.469067e+01    8.687410e-01
  2.480180e+01    8.880333e-01
  2.491293e+01    8.747675e-01
  2.502406e+01    8.952014e-01
  2.513519e+01    9.029549e-01
  2.524632e+01    9.331588e-01
  2.535745e+01    9.891416e-01
  2.546858e+01    1.035029e+00
  2.557971e+01    1.159927e+00
  2.569083e+01    1.515300e+00
  2.580196e+01    2.818191e+00
  2.591309e+01    6.406605e+00
  2.602422e+01    5.278756e+00
  2.613535e+01    2.122712e+00
  2.624648e+01    1.335316e+00
  2.635761e+01    1.120019e+00
  2.646874e+01    1.004955e+00
  2.657987e+01    9.839408e-01
  2.669100e+01    1.005591e+00
  2.680212e+01    9.700193e-01
  2.691325e+01    9.805242e-01
  2.702438e+01    1.176872e+00
  2.713551e+01    1.743887e+00
  2.724664e+01    2.082559e+00
  2.735777e+01    1.296836e+00
  2.746890e+01    1.038265e+00
  2.758003e+01    9.585232e-01
  2.769116e+01    9.020127e-01
  2.780229e+01    8.865066e-01
  2.791342e+01    8.879900e-01
  2.802454e+01    8.479250e-01
  2.813567e+01    8.612326e-01
  2.824680e+01    8.483324e-01
  2.835793e+01    8.633024e-01
  2.846906e+01    8.707161e-01
  2.858019e+01    8.469846e-01
  2.869132e+01    8.430632e-01
  2.880245e+01    8.372626e-01
  2.891358e+01    8.065372e-01
  2.902471e+01    8.101237e-01
  2.913583e+01    8.025165e-01
  2.924696e+01    7.964846e-01
  2.935809e+01    7.908965e-01
  2.946922e+01    8.096558e-01
  2.958035e+01    8.035091e-01
  2.969148e+01    8.029649e-01
  2.980261e+01    7.929091e-01
  2.991374e+01    8.000391e-01
  3.002487e+01    8.314388e-01
  3.013600e+01    8.050598e-01
  3.024712e+01    7.833321e-01
  3.035825e+01    7.953417e-01
  3.046938e+01    8.175072e-01
  3.058051e+01    7.774999e-01
  3.069164e+01    8.034064e-01
  3.080277e+01    7.641470e-01
  3.091390e+01    7.858777e-01
  3.102503e+01    7.853655e-01
  3.113616e+01    7.919083e-01
  3.124729e+01    8.020614e-01
  3.135841e+01    8.035024e-01
  3.146954e+01    8.199285e-01
  3.158067e+01    8.640712e-01
  3.169180e+01    1.006277e+00
  3.180293e+01    1.472907e+00
  3.191406e+01    2.089858e+00
  3.202519e+01    1.326955e+00
  3.213632e+01    9.398587e-01
  3.224745e+01    8.587633e-01
  3.235858e+01    7.908863e-01
  3.246970e+01    8.074381e-01
  3.254908e+01    7.895463e-01