File: XRD/Reaction conditions/2024-07-27_003_Ru-CGO-ex_Reaction_dwell_000023_data_000165.dat
# == pyFAI calibration ==
# Distance Sample to Detector: 0.4 m
# PONI: 9.750e-02, 1.135e-01 m
# Rotations: -0.000175 0.000000 -0.000000 rad
#
# == Fit2d calibration ==
# Distance Sample-beamCenter: 400.000 mm
# Center: x=1514.000, y=1300.000 pix
# Tilt: 0.010 deg  TiltPlanRot: 0.010 deg
#
# Detector Detector	 Spline= None	 PixelSize= 7.500e-05, 7.500e-05 m
#    Detector has a mask: False
#    Detector has a dark current: False
#    detector has a flat field: False
#
# Wavelength: 6.888e-11 m
# Mask applied: user provided
# Dark current applied: False
# Flat field applied: False
# Polarization factor: 0.99
# Normalization factor: 1.0
# --> /home/myspot/data/2024_07_Rosario/Ru-CGO-ex/2024-07-27_003_Ru-CGO-ex_Reaction_dwell_000023_data_000165.dat
#       q_nm^-1             I
  2.003187e-02    0.000000e+00
  1.311609e-01    2.051406e-04
  2.422899e-01    2.679029e-02
  3.534189e-01    2.802940e-02
  4.645479e-01    3.865714e-02
  5.756770e-01    4.528072e-02
  6.868060e-01    4.612057e-02
  7.979350e-01    1.417130e-01
  9.090640e-01    5.940392e-01
  1.020193e+00    1.259482e+00
  1.131322e+00    1.698726e+00
  1.242451e+00    2.291671e+00
  1.353580e+00    2.768904e+00
  1.464709e+00    2.860765e+00
  1.575838e+00    3.061219e+00
  1.686967e+00    3.112715e+00
  1.798096e+00    3.109141e+00
  1.909225e+00    3.008664e+00
  2.020354e+00    2.911148e+00
  2.131483e+00    3.164066e+00
  2.242612e+00    3.105270e+00
  2.353741e+00    3.114217e+00
  2.464870e+00    3.098728e+00
  2.575999e+00    3.155290e+00
  2.687128e+00    3.191802e+00
  2.798257e+00    3.234242e+00
  2.909386e+00    3.257470e+00
  3.020515e+00    3.396136e+00
  3.131644e+00    3.298168e+00
  3.242773e+00    3.360731e+00
  3.353902e+00    3.379624e+00
  3.465031e+00    3.321691e+00
  3.576160e+00    3.461601e+00
  3.687289e+00    3.425265e+00
  3.798418e+00    3.436247e+00
  3.909547e+00    3.527297e+00
  4.020676e+00    3.522707e+00
  4.131806e+00    3.507798e+00
  4.242935e+00    3.521195e+00
  4.354064e+00    3.519650e+00
  4.465193e+00    3.576943e+00
  4.576322e+00    3.504882e+00
  4.687451e+00    3.675461e+00
  4.798580e+00    3.595702e+00
  4.909709e+00    3.587253e+00
  5.020838e+00    3.659022e+00
  5.131967e+00    3.669724e+00
  5.243096e+00    3.648408e+00
  5.354225e+00    3.649816e+00
  5.465354e+00    3.597204e+00
  5.576483e+00    3.503794e+00
  5.687612e+00    3.531722e+00
  5.798741e+00    3.533897e+00
  5.909870e+00    3.447917e+00
  6.020999e+00    3.506648e+00
  6.132128e+00    3.641752e+00
  6.243257e+00    3.517006e+00
  6.354386e+00    3.534988e+00
  6.465515e+00    3.475178e+00
  6.576644e+00    3.567734e+00
  6.687773e+00    3.569750e+00
  6.798902e+00    3.453188e+00
  6.910031e+00    3.520159e+00
  7.021160e+00    3.510208e+00
  7.132289e+00    3.604891e+00
  7.243418e+00    3.505261e+00
  7.354547e+00    3.424822e+00
  7.465676e+00    3.448999e+00
  7.576805e+00    3.492939e+00
  7.687934e+00    3.421181e+00
  7.799063e+00    3.468606e+00
  7.910192e+00    3.371268e+00
  8.021321e+00    3.352077e+00
  8.132450e+00    3.466480e+00
  8.243579e+00    3.417716e+00
  8.354708e+00    3.319568e+00
  8.465837e+00    3.322886e+00
  8.576966e+00    3.320020e+00
  8.688095e+00    3.356514e+00
  8.799224e+00    3.251176e+00
  8.910353e+00    3.233474e+00
  9.021482e+00    3.306348e+00
  9.132611e+00    3.261255e+00
  9.243740e+00    3.273822e+00
  9.354869e+00    3.182356e+00
  9.465998e+00    3.197165e+00
  9.577127e+00    3.226701e+00
  9.688256e+00    3.040986e+00
  9.799385e+00    3.124033e+00
  9.910514e+00    3.117047e+00
  1.002164e+01    3.087148e+00
  1.013277e+01    3.124367e+00
  1.024390e+01    3.022805e+00
  1.035503e+01    2.975283e+00
  1.046616e+01    3.025994e+00
  1.057729e+01    2.932885e+00
  1.068842e+01    2.937187e+00
  1.079955e+01    3.012915e+00
  1.091068e+01    2.889932e+00
  1.102180e+01    2.871701e+00
  1.113293e+01    2.868894e+00
  1.124406e+01    2.812339e+00
  1.135519e+01    2.767127e+00
  1.146632e+01    2.777268e+00
  1.157745e+01    2.729074e+00
  1.168858e+01    2.711182e+00
  1.179971e+01    2.651935e+00
  1.191084e+01    2.684619e+00
  1.202197e+01    2.644514e+00
  1.213309e+01    2.698584e+00
  1.224422e+01    2.629708e+00
  1.235535e+01    2.676366e+00
  1.246648e+01    2.709038e+00
  1.257761e+01    2.704240e+00
  1.268874e+01    2.774288e+00
  1.279987e+01    3.009594e+00
  1.291100e+01    3.680796e+00
  1.302213e+01    6.569736e+00
  1.313326e+01    1.460892e+01
  1.324438e+01    1.064938e+01
  1.335551e+01    4.410226e+00
  1.346664e+01    3.081698e+00
  1.357777e+01    2.701324e+00
  1.368890e+01    2.567418e+00
  1.380003e+01    2.453553e+00
  1.391116e+01    2.395380e+00
  1.402229e+01    2.299301e+00
  1.413342e+01    2.321458e+00
  1.424455e+01    2.230078e+00
  1.435568e+01    2.225553e+00
  1.446680e+01    2.203421e+00
  1.457793e+01    2.190355e+00
  1.468906e+01    2.211334e+00
  1.480019e+01    2.174779e+00
  1.491132e+01    2.261989e+00
  1.502245e+01    2.509160e+00
  1.513358e+01    3.756149e+00
  1.524471e+01    5.665055e+00
  1.535584e+01    3.747802e+00
  1.546697e+01    2.411528e+00
  1.557809e+01    2.105761e+00
  1.568922e+01    1.962373e+00
  1.580035e+01    1.936906e+00
  1.591148e+01    1.885464e+00
  1.602261e+01    1.837660e+00
  1.613374e+01    1.809701e+00
  1.624487e+01    1.824922e+00
  1.635600e+01    1.731905e+00
  1.646713e+01    1.787813e+00
  1.657826e+01    1.703063e+00
  1.668938e+01    1.727980e+00
  1.680051e+01    1.687334e+00
  1.691164e+01    1.680604e+00
  1.702277e+01    1.650547e+00
  1.713390e+01    1.626885e+00
  1.724503e+01    1.627810e+00
  1.735616e+01    1.632974e+00
  1.746729e+01    1.569014e+00
  1.757842e+01    1.585078e+00
  1.768955e+01    1.537644e+00
  1.780067e+01    1.539294e+00
  1.791180e+01    1.497761e+00
  1.802293e+01    1.475419e+00
  1.813406e+01    1.504367e+00
  1.824519e+01    1.468391e+00
  1.835632e+01    1.430159e+00
  1.846745e+01    1.428358e+00
  1.857858e+01    1.441067e+00
  1.868971e+01    1.435565e+00
  1.880084e+01    1.400419e+00
  1.891196e+01    1.403550e+00
  1.902309e+01    1.365771e+00
  1.913422e+01    1.337943e+00
  1.924535e+01    1.334276e+00
  1.935648e+01    1.330146e+00
  1.946761e+01    1.336355e+00
  1.957874e+01    1.308372e+00
  1.968987e+01    1.321998e+00
  1.980100e+01    1.272675e+00
  1.991213e+01    1.276657e+00
  2.002325e+01    1.271356e+00
  2.013438e+01    1.252651e+00
  2.024551e+01    1.232752e+00
  2.035664e+01    1.229751e+00
  2.046777e+01    1.211263e+00
  2.057890e+01    1.247511e+00
  2.069003e+01    1.214249e+00
  2.080116e+01    1.186304e+00
  2.091229e+01    1.216225e+00
  2.102342e+01    1.228104e+00
  2.113455e+01    1.241725e+00
  2.124567e+01    1.228884e+00
  2.135680e+01    1.265248e+00
  2.146793e+01    1.351661e+00
  2.157906e+01    1.615924e+00
  2.169019e+01    2.484984e+00
  2.180132e+01    5.740554e+00
  2.191245e+01    8.623356e+00
  2.202358e+01    3.621252e+00
  2.213471e+01    1.866282e+00
  2.224584e+01    1.388475e+00
  2.235696e+01    1.224881e+00
  2.246809e+01    1.138526e+00
  2.257922e+01    1.109334e+00
  2.269035e+01    1.072028e+00
  2.280148e+01    1.048988e+00
  2.291261e+01    1.020158e+00
  2.302374e+01    1.022621e+00
  2.313487e+01    9.811027e-01
  2.324600e+01    9.857372e-01
  2.335713e+01    9.754341e-01
  2.346825e+01    9.483054e-01
  2.357938e+01    9.674329e-01
  2.369051e+01    9.421699e-01
  2.380164e+01    9.221319e-01
  2.391277e+01    8.709488e-01
  2.402390e+01    8.892580e-01
  2.413503e+01    8.879499e-01
  2.424616e+01    8.782377e-01
  2.435729e+01    8.589826e-01
  2.446842e+01    8.718751e-01
  2.457954e+01    8.690293e-01
  2.469067e+01    8.677191e-01
  2.480180e+01    8.827412e-01
  2.491293e+01    8.967876e-01
  2.502406e+01    8.740053e-01
  2.513519e+01    9.138417e-01
  2.524632e+01    9.456206e-01
  2.535745e+01    9.748264e-01
  2.546858e+01    1.039984e+00
  2.557971e+01    1.148864e+00
  2.569083e+01    1.482674e+00
  2.580196e+01    2.743041e+00
  2.591309e+01    6.247465e+00
  2.602422e+01    5.282012e+00
  2.613535e+01    2.128650e+00
  2.624648e+01    1.358989e+00
  2.635761e+01    1.114439e+00
  2.646874e+01    1.004710e+00
  2.657987e+01    9.695222e-01
  2.669100e+01    9.707359e-01
  2.680212e+01    9.670486e-01
  2.691325e+01    1.014923e+00
  2.702438e+01    1.115765e+00
  2.713551e+01    1.682155e+00
  2.724664e+01    2.025252e+00
  2.735777e+01    1.298767e+00
  2.746890e+01    1.022506e+00
  2.758003e+01    9.202454e-01
  2.769116e+01    9.137461e-01
  2.780229e+01    8.768677e-01
  2.791342e+01    8.486191e-01
  2.802454e+01    8.527253e-01
  2.813567e+01    8.685979e-01
  2.824680e+01    8.498995e-01
  2.835793e+01    8.341974e-01
  2.846906e+01    8.051259e-01
  2.858019e+01    8.363131e-01
  2.869132e+01    8.225704e-01
  2.880245e+01    7.986754e-01
  2.891358e+01    8.081750e-01
  2.902471e+01    7.927134e-01
  2.913583e+01    8.146555e-01
  2.924696e+01    7.727872e-01
  2.935809e+01    8.105296e-01
  2.946922e+01    7.904328e-01
  2.958035e+01    7.950450e-01
  2.969148e+01    7.647122e-01
  2.980261e+01    7.767316e-01
  2.991374e+01    7.862133e-01
  3.002487e+01    7.858323e-01
  3.013600e+01    7.936950e-01
  3.024712e+01    7.339254e-01
  3.035825e+01    7.817389e-01
  3.046938e+01    7.756999e-01
  3.058051e+01    7.907655e-01
  3.069164e+01    7.719293e-01
  3.080277e+01    7.651789e-01
  3.091390e+01    7.573331e-01
  3.102503e+01    7.801340e-01
  3.113616e+01    7.696342e-01
  3.124729e+01    8.109950e-01
  3.135841e+01    8.113823e-01
  3.146954e+01    8.169489e-01
  3.158067e+01    8.631402e-01
  3.169180e+01    9.384426e-01
  3.180293e+01    1.441839e+00
  3.191406e+01    2.056457e+00
  3.202519e+01    1.306020e+00
  3.213632e+01    9.495519e-01
  3.224745e+01    8.044475e-01
  3.235858e+01    7.934636e-01
  3.246970e+01    7.705107e-01
  3.254908e+01    7.568026e-01