File: XRD/Reaction conditions/2024-07-27_003_Ru-CGO-ex_Reaction_dwell_000023_data_000104.dat
# == pyFAI calibration ==
# Distance Sample to Detector: 0.4 m
# PONI: 9.750e-02, 1.135e-01 m
# Rotations: -0.000175 0.000000 -0.000000 rad
#
# == Fit2d calibration ==
# Distance Sample-beamCenter: 400.000 mm
# Center: x=1514.000, y=1300.000 pix
# Tilt: 0.010 deg  TiltPlanRot: 0.010 deg
#
# Detector Detector	 Spline= None	 PixelSize= 7.500e-05, 7.500e-05 m
#    Detector has a mask: False
#    Detector has a dark current: False
#    detector has a flat field: False
#
# Wavelength: 6.888e-11 m
# Mask applied: user provided
# Dark current applied: False
# Flat field applied: False
# Polarization factor: 0.99
# Normalization factor: 1.0
# --> /home/myspot/data/2024_07_Rosario/Ru-CGO-ex/2024-07-27_003_Ru-CGO-ex_Reaction_dwell_000023_data_000104.dat
#       q_nm^-1             I
  2.003187e-02    0.000000e+00
  1.311609e-01    2.371467e-02
  2.422899e-01    4.983423e-02
  3.534189e-01    5.904954e-02
  4.645479e-01    3.900738e-02
  5.756770e-01    4.538373e-02
  6.868060e-01    4.343649e-02
  7.979350e-01    1.563807e-01
  9.090640e-01    6.527181e-01
  1.020193e+00    1.333573e+00
  1.131322e+00    1.628923e+00
  1.242451e+00    2.352904e+00
  1.353580e+00    2.667893e+00
  1.464709e+00    3.103387e+00
  1.575838e+00    3.294838e+00
  1.686967e+00    3.258168e+00
  1.798096e+00    3.153314e+00
  1.909225e+00    3.081427e+00
  2.020354e+00    3.098731e+00
  2.131483e+00    3.073964e+00
  2.242612e+00    3.135561e+00
  2.353741e+00    3.082944e+00
  2.464870e+00    3.095624e+00
  2.575999e+00    3.078791e+00
  2.687128e+00    3.324893e+00
  2.798257e+00    3.343349e+00
  2.909386e+00    3.260114e+00
  3.020515e+00    3.350206e+00
  3.131644e+00    3.461490e+00
  3.242773e+00    3.378034e+00
  3.353902e+00    3.444517e+00
  3.465031e+00    3.490267e+00
  3.576160e+00    3.489087e+00
  3.687289e+00    3.418389e+00
  3.798418e+00    3.548551e+00
  3.909547e+00    3.529656e+00
  4.020676e+00    3.450811e+00
  4.131806e+00    3.550423e+00
  4.242935e+00    3.579106e+00
  4.354064e+00    3.643276e+00
  4.465193e+00    3.666363e+00
  4.576322e+00    3.608855e+00
  4.687451e+00    3.637256e+00
  4.798580e+00    3.650220e+00
  4.909709e+00    3.738346e+00
  5.020838e+00    3.588987e+00
  5.131967e+00    3.605263e+00
  5.243096e+00    3.704521e+00
  5.354225e+00    3.664129e+00
  5.465354e+00    3.593584e+00
  5.576483e+00    3.589878e+00
  5.687612e+00    3.564077e+00
  5.798741e+00    3.586469e+00
  5.909870e+00    3.561118e+00
  6.020999e+00    3.459054e+00
  6.132128e+00    3.552763e+00
  6.243257e+00    3.599002e+00
  6.354386e+00    3.579675e+00
  6.465515e+00    3.569988e+00
  6.576644e+00    3.502160e+00
  6.687773e+00    3.585401e+00
  6.798902e+00    3.534322e+00
  6.910031e+00    3.542170e+00
  7.021160e+00    3.568967e+00
  7.132289e+00    3.543895e+00
  7.243418e+00    3.495735e+00
  7.354547e+00    3.537840e+00
  7.465676e+00    3.497658e+00
  7.576805e+00    3.508661e+00
  7.687934e+00    3.471131e+00
  7.799063e+00    3.538748e+00
  7.910192e+00    3.426530e+00
  8.021321e+00    3.430107e+00
  8.132450e+00    3.404536e+00
  8.243579e+00    3.538185e+00
  8.354708e+00    3.388214e+00
  8.465837e+00    3.434019e+00
  8.576966e+00    3.403186e+00
  8.688095e+00    3.424108e+00
  8.799224e+00    3.333781e+00
  8.910353e+00    3.248092e+00
  9.021482e+00    3.304841e+00
  9.132611e+00    3.312508e+00
  9.243740e+00    3.268387e+00
  9.354869e+00    3.245447e+00
  9.465998e+00    3.299407e+00
  9.577127e+00    3.263127e+00
  9.688256e+00    3.205497e+00
  9.799385e+00    3.131835e+00
  9.910514e+00    3.145089e+00
  1.002164e+01    3.067730e+00
  1.013277e+01    3.168357e+00
  1.024390e+01    2.993506e+00
  1.035503e+01    2.977281e+00
  1.046616e+01    3.027965e+00
  1.057729e+01    2.983080e+00
  1.068842e+01    2.971678e+00
  1.079955e+01    2.995253e+00
  1.091068e+01    2.955017e+00
  1.102180e+01    2.846351e+00
  1.113293e+01    2.877173e+00
  1.124406e+01    2.837488e+00
  1.135519e+01    2.814350e+00
  1.146632e+01    2.829597e+00
  1.157745e+01    2.759658e+00
  1.168858e+01    2.793153e+00
  1.179971e+01    2.766856e+00
  1.191084e+01    2.789963e+00
  1.202197e+01    2.769978e+00
  1.213309e+01    2.751229e+00
  1.224422e+01    2.698178e+00
  1.235535e+01    2.676439e+00
  1.246648e+01    2.687653e+00
  1.257761e+01    2.695971e+00
  1.268874e+01    2.818271e+00
  1.279987e+01    3.012530e+00
  1.291100e+01    3.685619e+00
  1.302213e+01    6.752502e+00
  1.313326e+01    1.490109e+01
  1.324438e+01    1.070818e+01
  1.335551e+01    4.432753e+00
  1.346664e+01    3.148156e+00
  1.357777e+01    2.687939e+00
  1.368890e+01    2.573609e+00
  1.380003e+01    2.477379e+00
  1.391116e+01    2.410819e+00
  1.402229e+01    2.310144e+00
  1.413342e+01    2.318662e+00
  1.424455e+01    2.285405e+00
  1.435568e+01    2.235274e+00
  1.446680e+01    2.248760e+00
  1.457793e+01    2.217119e+00
  1.468906e+01    2.224355e+00
  1.480019e+01    2.199377e+00
  1.491132e+01    2.232038e+00
  1.502245e+01    2.468146e+00
  1.513358e+01    3.788840e+00
  1.524471e+01    5.784528e+00
  1.535584e+01    3.805491e+00
  1.546697e+01    2.436991e+00
  1.557809e+01    2.130348e+00
  1.568922e+01    2.050001e+00
  1.580035e+01    1.959710e+00
  1.591148e+01    1.916168e+00
  1.602261e+01    1.897219e+00
  1.613374e+01    1.810051e+00
  1.624487e+01    1.787920e+00
  1.635600e+01    1.762448e+00
  1.646713e+01    1.769345e+00
  1.657826e+01    1.735065e+00
  1.668938e+01    1.752485e+00
  1.680051e+01    1.687101e+00
  1.691164e+01    1.659416e+00
  1.702277e+01    1.679934e+00
  1.713390e+01    1.626653e+00
  1.724503e+01    1.655875e+00
  1.735616e+01    1.603168e+00
  1.746729e+01    1.570074e+00
  1.757842e+01    1.577714e+00
  1.768955e+01    1.555059e+00
  1.780067e+01    1.556582e+00
  1.791180e+01    1.548259e+00
  1.802293e+01    1.512684e+00
  1.813406e+01    1.505950e+00
  1.824519e+01    1.476459e+00
  1.835632e+01    1.491997e+00
  1.846745e+01    1.438217e+00
  1.857858e+01    1.464443e+00
  1.868971e+01    1.409209e+00
  1.880084e+01    1.414753e+00
  1.891196e+01    1.400540e+00
  1.902309e+01    1.377807e+00
  1.913422e+01    1.391268e+00
  1.924535e+01    1.365251e+00
  1.935648e+01    1.326709e+00
  1.946761e+01    1.327325e+00
  1.957874e+01    1.320281e+00
  1.968987e+01    1.310896e+00
  1.980100e+01    1.301727e+00
  1.991213e+01    1.307475e+00
  2.002325e+01    1.294190e+00
  2.013438e+01    1.260175e+00
  2.024551e+01    1.286657e+00
  2.035664e+01    1.232359e+00
  2.046777e+01    1.238186e+00
  2.057890e+01    1.236908e+00
  2.069003e+01    1.258803e+00
  2.080116e+01    1.224521e+00
  2.091229e+01    1.243016e+00
  2.102342e+01    1.222907e+00
  2.113455e+01    1.212808e+00
  2.124567e+01    1.257154e+00
  2.135680e+01    1.287256e+00
  2.146793e+01    1.361281e+00
  2.157906e+01    1.615889e+00
  2.169019e+01    2.508818e+00
  2.180132e+01    5.887434e+00
  2.191245e+01    8.752769e+00
  2.202358e+01    3.628027e+00
  2.213471e+01    1.866294e+00
  2.224584e+01    1.414275e+00
  2.235696e+01    1.244186e+00
  2.246809e+01    1.168507e+00
  2.257922e+01    1.120054e+00
  2.269035e+01    1.038337e+00
  2.280148e+01    1.050820e+00
  2.291261e+01    1.034209e+00
  2.302374e+01    1.048666e+00
  2.313487e+01    1.001186e+00
  2.324600e+01    9.972309e-01
  2.335713e+01    9.554294e-01
  2.346825e+01    9.675498e-01
  2.357938e+01    9.405672e-01
  2.369051e+01    9.245687e-01
  2.380164e+01    9.192235e-01
  2.391277e+01    9.051012e-01
  2.402390e+01    9.014165e-01
  2.413503e+01    8.943569e-01
  2.424616e+01    8.716497e-01
  2.435729e+01    8.980728e-01
  2.446842e+01    8.835841e-01
  2.457954e+01    9.008993e-01
  2.469067e+01    9.071432e-01
  2.480180e+01    8.952086e-01
  2.491293e+01    8.801507e-01
  2.502406e+01    9.259481e-01
  2.513519e+01    9.114324e-01
  2.524632e+01    9.431524e-01
  2.535745e+01    9.658659e-01
  2.546858e+01    1.021841e+00
  2.557971e+01    1.139493e+00
  2.569083e+01    1.499411e+00
  2.580196e+01    2.804732e+00
  2.591309e+01    6.393063e+00
  2.602422e+01    5.266837e+00
  2.613535e+01    2.146549e+00
  2.624648e+01    1.347097e+00
  2.635761e+01    1.081268e+00
  2.646874e+01    1.024171e+00
  2.657987e+01    9.778148e-01
  2.669100e+01    9.609578e-01
  2.680212e+01    9.910390e-01
  2.691325e+01    1.019050e+00
  2.702438e+01    1.132910e+00
  2.713551e+01    1.748183e+00
  2.724664e+01    2.100550e+00
  2.735777e+01    1.276324e+00
  2.746890e+01    1.014017e+00
  2.758003e+01    9.276685e-01
  2.769116e+01    9.060781e-01
  2.780229e+01    8.700218e-01
  2.791342e+01    8.670901e-01
  2.802454e+01    8.655975e-01
  2.813567e+01    8.769043e-01
  2.824680e+01    8.581281e-01
  2.835793e+01    8.315551e-01
  2.846906e+01    8.543810e-01
  2.858019e+01    8.344284e-01
  2.869132e+01    8.113219e-01
  2.880245e+01    8.250273e-01
  2.891358e+01    8.168265e-01
  2.902471e+01    8.159186e-01
  2.913583e+01    8.405011e-01
  2.924696e+01    8.121282e-01
  2.935809e+01    8.143911e-01
  2.946922e+01    8.084863e-01
  2.958035e+01    7.944757e-01
  2.969148e+01    8.237996e-01
  2.980261e+01    8.043472e-01
  2.991374e+01    7.931477e-01
  3.002487e+01    8.237821e-01
  3.013600e+01    8.055422e-01
  3.024712e+01    8.040837e-01
  3.035825e+01    7.783645e-01
  3.046938e+01    7.596567e-01
  3.058051e+01    7.665144e-01
  3.069164e+01    7.845521e-01
  3.080277e+01    7.942251e-01
  3.091390e+01    7.879720e-01
  3.102503e+01    7.795420e-01
  3.113616e+01    8.153341e-01
  3.124729e+01    7.794001e-01
  3.135841e+01    7.928784e-01
  3.146954e+01    8.307657e-01
  3.158067e+01    8.504820e-01
  3.169180e+01    9.947800e-01
  3.180293e+01    1.471182e+00
  3.191406e+01    2.067625e+00
  3.202519e+01    1.279865e+00
  3.213632e+01    9.411865e-01
  3.224745e+01    8.254522e-01
  3.235858e+01    8.001871e-01
  3.246970e+01    7.858016e-01
  3.254908e+01    7.792428e-01