File: XRD/Reaction conditions/2024-07-27_003_Ru-CGO-ex_Reaction_dwell_000023_data_000020.dat
# == pyFAI calibration ==
# Distance Sample to Detector: 0.4 m
# PONI: 9.750e-02, 1.135e-01 m
# Rotations: -0.000175 0.000000 -0.000000 rad
#
# == Fit2d calibration ==
# Distance Sample-beamCenter: 400.000 mm
# Center: x=1514.000, y=1300.000 pix
# Tilt: 0.010 deg  TiltPlanRot: 0.010 deg
#
# Detector Detector	 Spline= None	 PixelSize= 7.500e-05, 7.500e-05 m
#    Detector has a mask: False
#    Detector has a dark current: False
#    detector has a flat field: False
#
# Wavelength: 6.888e-11 m
# Mask applied: user provided
# Dark current applied: False
# Flat field applied: False
# Polarization factor: 0.99
# Normalization factor: 1.0
# --> /home/myspot/data/2024_07_Rosario/Ru-CGO-ex/2024-07-27_003_Ru-CGO-ex_Reaction_dwell_000023_data_000020.dat
#       q_nm^-1             I
  2.003187e-02    0.000000e+00
  1.311609e-01    5.074193e-02
  2.422899e-01    5.617305e-02
  3.534189e-01    5.841092e-03
  4.645479e-01    9.410734e-02
  5.756770e-01    3.539728e-02
  6.868060e-01    6.436373e-02
  7.979350e-01    1.693815e-01
  9.090640e-01    5.836325e-01
  1.020193e+00    1.294212e+00
  1.131322e+00    1.512260e+00
  1.242451e+00    2.357295e+00
  1.353580e+00    2.783509e+00
  1.464709e+00    3.105237e+00
  1.575838e+00    3.298952e+00
  1.686967e+00    3.236161e+00
  1.798096e+00    3.082591e+00
  1.909225e+00    3.112435e+00
  2.020354e+00    3.027269e+00
  2.131483e+00    3.157615e+00
  2.242612e+00    3.142576e+00
  2.353741e+00    3.103356e+00
  2.464870e+00    3.299243e+00
  2.575999e+00    3.243949e+00
  2.687128e+00    3.318765e+00
  2.798257e+00    3.312409e+00
  2.909386e+00    3.345268e+00
  3.020515e+00    3.377708e+00
  3.131644e+00    3.416629e+00
  3.242773e+00    3.442486e+00
  3.353902e+00    3.453568e+00
  3.465031e+00    3.540638e+00
  3.576160e+00    3.555198e+00
  3.687289e+00    3.590724e+00
  3.798418e+00    3.528523e+00
  3.909547e+00    3.598354e+00
  4.020676e+00    3.579053e+00
  4.131806e+00    3.615482e+00
  4.242935e+00    3.506777e+00
  4.354064e+00    3.630277e+00
  4.465193e+00    3.524615e+00
  4.576322e+00    3.648031e+00
  4.687451e+00    3.644325e+00
  4.798580e+00    3.601268e+00
  4.909709e+00    3.662345e+00
  5.020838e+00    3.612603e+00
  5.131967e+00    3.555239e+00
  5.243096e+00    3.703315e+00
  5.354225e+00    3.696681e+00
  5.465354e+00    3.628041e+00
  5.576483e+00    3.570592e+00
  5.687612e+00    3.663935e+00
  5.798741e+00    3.596171e+00
  5.909870e+00    3.599939e+00
  6.020999e+00    3.513971e+00
  6.132128e+00    3.582583e+00
  6.243257e+00    3.584758e+00
  6.354386e+00    3.545545e+00
  6.465515e+00    3.654348e+00
  6.576644e+00    3.622259e+00
  6.687773e+00    3.522356e+00
  6.798902e+00    3.599382e+00
  6.910031e+00    3.540956e+00
  7.021160e+00    3.546913e+00
  7.132289e+00    3.610146e+00
  7.243418e+00    3.594532e+00
  7.354547e+00    3.486701e+00
  7.465676e+00    3.492624e+00
  7.576805e+00    3.433858e+00
  7.687934e+00    3.484391e+00
  7.799063e+00    3.475495e+00
  7.910192e+00    3.413080e+00
  8.021321e+00    3.431580e+00
  8.132450e+00    3.525124e+00
  8.243579e+00    3.533503e+00
  8.354708e+00    3.488082e+00
  8.465837e+00    3.345251e+00
  8.576966e+00    3.398842e+00
  8.688095e+00    3.373003e+00
  8.799224e+00    3.325129e+00
  8.910353e+00    3.362015e+00
  9.021482e+00    3.290712e+00
  9.132611e+00    3.337662e+00
  9.243740e+00    3.296470e+00
  9.354869e+00    3.249438e+00
  9.465998e+00    3.232538e+00
  9.577127e+00    3.239096e+00
  9.688256e+00    3.246347e+00
  9.799385e+00    3.160256e+00
  9.910514e+00    3.185855e+00
  1.002164e+01    3.116336e+00
  1.013277e+01    3.116696e+00
  1.024390e+01    3.013858e+00
  1.035503e+01    3.119040e+00
  1.046616e+01    3.034570e+00
  1.057729e+01    2.999569e+00
  1.068842e+01    2.982280e+00
  1.079955e+01    2.951272e+00
  1.091068e+01    2.987128e+00
  1.102180e+01    2.886788e+00
  1.113293e+01    2.846352e+00
  1.124406e+01    2.909622e+00
  1.135519e+01    2.829295e+00
  1.146632e+01    2.801753e+00
  1.157745e+01    2.797158e+00
  1.168858e+01    2.761422e+00
  1.179971e+01    2.764441e+00
  1.191084e+01    2.720273e+00
  1.202197e+01    2.754897e+00
  1.213309e+01    2.705487e+00
  1.224422e+01    2.749795e+00
  1.235535e+01    2.731823e+00
  1.246648e+01    2.690190e+00
  1.257761e+01    2.742888e+00
  1.268874e+01    2.840874e+00
  1.279987e+01    3.042899e+00
  1.291100e+01    3.732883e+00
  1.302213e+01    6.786633e+00
  1.313326e+01    1.496053e+01
  1.324438e+01    1.073721e+01
  1.335551e+01    4.438141e+00
  1.346664e+01    3.178441e+00
  1.357777e+01    2.743199e+00
  1.368890e+01    2.571944e+00
  1.380003e+01    2.508069e+00
  1.391116e+01    2.406852e+00
  1.402229e+01    2.352793e+00
  1.413342e+01    2.357579e+00
  1.424455e+01    2.343908e+00
  1.435568e+01    2.293113e+00
  1.446680e+01    2.261147e+00
  1.457793e+01    2.192998e+00
  1.468906e+01    2.198549e+00
  1.480019e+01    2.225639e+00
  1.491132e+01    2.277489e+00
  1.502245e+01    2.488469e+00
  1.513358e+01    3.871982e+00
  1.524471e+01    5.883088e+00
  1.535584e+01    3.785454e+00
  1.546697e+01    2.443273e+00
  1.557809e+01    2.148030e+00
  1.568922e+01    2.035960e+00
  1.580035e+01    1.967102e+00
  1.591148e+01    1.930175e+00
  1.602261e+01    1.856569e+00
  1.613374e+01    1.823717e+00
  1.624487e+01    1.845618e+00
  1.635600e+01    1.765361e+00
  1.646713e+01    1.778895e+00
  1.657826e+01    1.786066e+00
  1.668938e+01    1.725754e+00
  1.680051e+01    1.707757e+00
  1.691164e+01    1.692694e+00
  1.702277e+01    1.670412e+00
  1.713390e+01    1.661882e+00
  1.724503e+01    1.604331e+00
  1.735616e+01    1.617977e+00
  1.746729e+01    1.590864e+00
  1.757842e+01    1.553992e+00
  1.768955e+01    1.542634e+00
  1.780067e+01    1.550339e+00
  1.791180e+01    1.515401e+00
  1.802293e+01    1.533381e+00
  1.813406e+01    1.511889e+00
  1.824519e+01    1.475684e+00
  1.835632e+01    1.478393e+00
  1.846745e+01    1.469219e+00
  1.857858e+01    1.469800e+00
  1.868971e+01    1.412367e+00
  1.880084e+01    1.440767e+00
  1.891196e+01    1.399831e+00
  1.902309e+01    1.383172e+00
  1.913422e+01    1.400321e+00
  1.924535e+01    1.338795e+00
  1.935648e+01    1.349255e+00
  1.946761e+01    1.340836e+00
  1.957874e+01    1.341405e+00
  1.968987e+01    1.317278e+00
  1.980100e+01    1.309208e+00
  1.991213e+01    1.305255e+00
  2.002325e+01    1.271884e+00
  2.013438e+01    1.273207e+00
  2.024551e+01    1.272704e+00
  2.035664e+01    1.246412e+00
  2.046777e+01    1.238596e+00
  2.057890e+01    1.251712e+00
  2.069003e+01    1.245005e+00
  2.080116e+01    1.241674e+00
  2.091229e+01    1.247173e+00
  2.102342e+01    1.225924e+00
  2.113455e+01    1.249655e+00
  2.124567e+01    1.279064e+00
  2.135680e+01    1.315960e+00
  2.146793e+01    1.371213e+00
  2.157906e+01    1.690999e+00
  2.169019e+01    2.559905e+00
  2.180132e+01    5.981572e+00
  2.191245e+01    8.808901e+00
  2.202358e+01    3.557873e+00
  2.213471e+01    1.878078e+00
  2.224584e+01    1.398115e+00
  2.235696e+01    1.234320e+00
  2.246809e+01    1.181177e+00
  2.257922e+01    1.126705e+00
  2.269035e+01    1.084659e+00
  2.280148e+01    1.055212e+00
  2.291261e+01    1.043032e+00
  2.302374e+01    1.029102e+00
  2.313487e+01    1.013589e+00
  2.324600e+01    9.934707e-01
  2.335713e+01    9.960883e-01
  2.346825e+01    9.740315e-01
  2.357938e+01    9.517834e-01
  2.369051e+01    9.384869e-01
  2.380164e+01    9.296402e-01
  2.391277e+01    9.150997e-01
  2.402390e+01    8.936687e-01
  2.413503e+01    8.933803e-01
  2.424616e+01    8.951607e-01
  2.435729e+01    9.055094e-01
  2.446842e+01    9.077196e-01
  2.457954e+01    9.179792e-01
  2.469067e+01    9.017576e-01
  2.480180e+01    8.647145e-01
  2.491293e+01    8.777288e-01
  2.502406e+01    9.228280e-01
  2.513519e+01    9.017168e-01
  2.524632e+01    9.609755e-01
  2.535745e+01    1.001303e+00
  2.546858e+01    1.017198e+00
  2.557971e+01    1.149264e+00
  2.569083e+01    1.515661e+00
  2.580196e+01    2.872062e+00
  2.591309e+01    6.495323e+00
  2.602422e+01    5.217923e+00
  2.613535e+01    2.095331e+00
  2.624648e+01    1.344522e+00
  2.635761e+01    1.112686e+00
  2.646874e+01    1.021411e+00
  2.657987e+01    9.901707e-01
  2.669100e+01    9.774912e-01
  2.680212e+01    9.975555e-01
  2.691325e+01    1.031742e+00
  2.702438e+01    1.156034e+00
  2.713551e+01    1.774050e+00
  2.724664e+01    2.083593e+00
  2.735777e+01    1.272612e+00
  2.746890e+01    1.018214e+00
  2.758003e+01    9.764163e-01
  2.769116e+01    9.252007e-01
  2.780229e+01    9.078248e-01
  2.791342e+01    8.965442e-01
  2.802454e+01    8.823112e-01
  2.813567e+01    8.462199e-01
  2.824680e+01    8.541619e-01
  2.835793e+01    8.575741e-01
  2.846906e+01    8.377889e-01
  2.858019e+01    8.370796e-01
  2.869132e+01    8.463408e-01
  2.880245e+01    8.316398e-01
  2.891358e+01    8.139329e-01
  2.902471e+01    8.082801e-01
  2.913583e+01    8.150830e-01
  2.924696e+01    8.181983e-01
  2.935809e+01    8.057591e-01
  2.946922e+01    8.086901e-01
  2.958035e+01    8.016634e-01
  2.969148e+01    8.122520e-01
  2.980261e+01    8.062325e-01
  2.991374e+01    8.017720e-01
  3.002487e+01    8.321170e-01
  3.013600e+01    8.092652e-01
  3.024712e+01    7.903090e-01
  3.035825e+01    7.716330e-01
  3.046938e+01    7.979457e-01
  3.058051e+01    7.718972e-01
  3.069164e+01    7.989791e-01
  3.080277e+01    7.884361e-01
  3.091390e+01    7.974357e-01
  3.102503e+01    7.898854e-01
  3.113616e+01    7.754661e-01
  3.124729e+01    8.030726e-01
  3.135841e+01    8.095242e-01
  3.146954e+01    8.392550e-01
  3.158067e+01    8.961523e-01
  3.169180e+01    9.956893e-01
  3.180293e+01    1.501095e+00
  3.191406e+01    2.084478e+00
  3.202519e+01    1.320409e+00
  3.213632e+01    9.287691e-01
  3.224745e+01    8.374208e-01
  3.235858e+01    8.021422e-01
  3.246970e+01    8.119388e-01
  3.254908e+01    7.576967e-01