File: XRD/Reaction conditions/2024-07-27_003_Ru-CGO-ex_Reaction_dwell_000023_data_000109.dat
# == pyFAI calibration ==
# Distance Sample to Detector: 0.4 m
# PONI: 9.750e-02, 1.135e-01 m
# Rotations: -0.000175 0.000000 -0.000000 rad
#
# == Fit2d calibration ==
# Distance Sample-beamCenter: 400.000 mm
# Center: x=1514.000, y=1300.000 pix
# Tilt: 0.010 deg  TiltPlanRot: 0.010 deg
#
# Detector Detector	 Spline= None	 PixelSize= 7.500e-05, 7.500e-05 m
#    Detector has a mask: False
#    Detector has a dark current: False
#    detector has a flat field: False
#
# Wavelength: 6.888e-11 m
# Mask applied: user provided
# Dark current applied: False
# Flat field applied: False
# Polarization factor: 0.99
# Normalization factor: 1.0
# --> /home/myspot/data/2024_07_Rosario/Ru-CGO-ex/2024-07-27_003_Ru-CGO-ex_Reaction_dwell_000023_data_000109.dat
#       q_nm^-1             I
  2.003187e-02    7.712225e-02
  1.311609e-01    7.755107e-02
  2.422899e-01    3.489761e-02
  3.534189e-01    1.500947e-02
  4.645479e-01    2.361181e-02
  5.756770e-01    4.277406e-02
  6.868060e-01    4.128529e-02
  7.979350e-01    1.828197e-01
  9.090640e-01    7.396750e-01
  1.020193e+00    1.314970e+00
  1.131322e+00    1.527126e+00
  1.242451e+00    2.333405e+00
  1.353580e+00    2.871037e+00
  1.464709e+00    3.131552e+00
  1.575838e+00    3.071882e+00
  1.686967e+00    3.115450e+00
  1.798096e+00    3.120636e+00
  1.909225e+00    3.131601e+00
  2.020354e+00    3.037064e+00
  2.131483e+00    2.972071e+00
  2.242612e+00    3.117308e+00
  2.353741e+00    3.114950e+00
  2.464870e+00    3.184890e+00
  2.575999e+00    3.162141e+00
  2.687128e+00    3.328917e+00
  2.798257e+00    3.218551e+00
  2.909386e+00    3.354692e+00
  3.020515e+00    3.364854e+00
  3.131644e+00    3.349874e+00
  3.242773e+00    3.390349e+00
  3.353902e+00    3.442364e+00
  3.465031e+00    3.415344e+00
  3.576160e+00    3.532840e+00
  3.687289e+00    3.444862e+00
  3.798418e+00    3.469341e+00
  3.909547e+00    3.585793e+00
  4.020676e+00    3.575765e+00
  4.131806e+00    3.489291e+00
  4.242935e+00    3.574146e+00
  4.354064e+00    3.575499e+00
  4.465193e+00    3.636748e+00
  4.576322e+00    3.676466e+00
  4.687451e+00    3.555640e+00
  4.798580e+00    3.611330e+00
  4.909709e+00    3.698958e+00
  5.020838e+00    3.739010e+00
  5.131967e+00    3.702236e+00
  5.243096e+00    3.706670e+00
  5.354225e+00    3.731808e+00
  5.465354e+00    3.665506e+00
  5.576483e+00    3.686890e+00
  5.687612e+00    3.635648e+00
  5.798741e+00    3.584606e+00
  5.909870e+00    3.541422e+00
  6.020999e+00    3.526289e+00
  6.132128e+00    3.465917e+00
  6.243257e+00    3.579705e+00
  6.354386e+00    3.540521e+00
  6.465515e+00    3.583847e+00
  6.576644e+00    3.548442e+00
  6.687773e+00    3.556149e+00
  6.798902e+00    3.609047e+00
  6.910031e+00    3.550501e+00
  7.021160e+00    3.514379e+00
  7.132289e+00    3.499611e+00
  7.243418e+00    3.551218e+00
  7.354547e+00    3.528968e+00
  7.465676e+00    3.616258e+00
  7.576805e+00    3.480814e+00
  7.687934e+00    3.478864e+00
  7.799063e+00    3.494432e+00
  7.910192e+00    3.416613e+00
  8.021321e+00    3.448599e+00
  8.132450e+00    3.459167e+00
  8.243579e+00    3.509536e+00
  8.354708e+00    3.465499e+00
  8.465837e+00    3.412039e+00
  8.576966e+00    3.355216e+00
  8.688095e+00    3.410941e+00
  8.799224e+00    3.383807e+00
  8.910353e+00    3.332411e+00
  9.021482e+00    3.239574e+00
  9.132611e+00    3.299587e+00
  9.243740e+00    3.267694e+00
  9.354869e+00    3.249138e+00
  9.465998e+00    3.248560e+00
  9.577127e+00    3.226311e+00
  9.688256e+00    3.151969e+00
  9.799385e+00    3.054490e+00
  9.910514e+00    3.109665e+00
  1.002164e+01    3.132746e+00
  1.013277e+01    3.120300e+00
  1.024390e+01    3.075870e+00
  1.035503e+01    3.056937e+00
  1.046616e+01    3.048729e+00
  1.057729e+01    3.004776e+00
  1.068842e+01    2.922317e+00
  1.079955e+01    2.952501e+00
  1.091068e+01    2.939927e+00
  1.102180e+01    2.905066e+00
  1.113293e+01    2.851247e+00
  1.124406e+01    2.847048e+00
  1.135519e+01    2.841061e+00
  1.146632e+01    2.763635e+00
  1.157745e+01    2.774674e+00
  1.168858e+01    2.811908e+00
  1.179971e+01    2.777283e+00
  1.191084e+01    2.750422e+00
  1.202197e+01    2.740718e+00
  1.213309e+01    2.740964e+00
  1.224422e+01    2.728230e+00
  1.235535e+01    2.755747e+00
  1.246648e+01    2.687452e+00
  1.257761e+01    2.741387e+00
  1.268874e+01    2.820751e+00
  1.279987e+01    3.080523e+00
  1.291100e+01    3.686555e+00
  1.302213e+01    6.750510e+00
  1.313326e+01    1.475973e+01
  1.324438e+01    1.076160e+01
  1.335551e+01    4.426820e+00
  1.346664e+01    3.143627e+00
  1.357777e+01    2.737802e+00
  1.368890e+01    2.617526e+00
  1.380003e+01    2.489775e+00
  1.391116e+01    2.420179e+00
  1.402229e+01    2.396815e+00
  1.413342e+01    2.328490e+00
  1.424455e+01    2.321779e+00
  1.435568e+01    2.256063e+00
  1.446680e+01    2.226970e+00
  1.457793e+01    2.226558e+00
  1.468906e+01    2.193803e+00
  1.480019e+01    2.211847e+00
  1.491132e+01    2.303627e+00
  1.502245e+01    2.527946e+00
  1.513358e+01    3.781944e+00
  1.524471e+01    5.803175e+00
  1.535584e+01    3.774629e+00
  1.546697e+01    2.415202e+00
  1.557809e+01    2.104554e+00
  1.568922e+01    2.006450e+00
  1.580035e+01    1.968997e+00
  1.591148e+01    1.904264e+00
  1.602261e+01    1.869737e+00
  1.613374e+01    1.903774e+00
  1.624487e+01    1.807051e+00
  1.635600e+01    1.789813e+00
  1.646713e+01    1.790979e+00
  1.657826e+01    1.750279e+00
  1.668938e+01    1.732371e+00
  1.680051e+01    1.710844e+00
  1.691164e+01    1.675587e+00
  1.702277e+01    1.701503e+00
  1.713390e+01    1.661101e+00
  1.724503e+01    1.627384e+00
  1.735616e+01    1.643338e+00
  1.746729e+01    1.633991e+00
  1.757842e+01    1.604129e+00
  1.768955e+01    1.555140e+00
  1.780067e+01    1.563799e+00
  1.791180e+01    1.526128e+00
  1.802293e+01    1.516152e+00
  1.813406e+01    1.505375e+00
  1.824519e+01    1.453111e+00
  1.835632e+01    1.486495e+00
  1.846745e+01    1.415511e+00
  1.857858e+01    1.442428e+00
  1.868971e+01    1.435887e+00
  1.880084e+01    1.443623e+00
  1.891196e+01    1.395226e+00
  1.902309e+01    1.391391e+00
  1.913422e+01    1.368730e+00
  1.924535e+01    1.338711e+00
  1.935648e+01    1.352863e+00
  1.946761e+01    1.330052e+00
  1.957874e+01    1.301362e+00
  1.968987e+01    1.305644e+00
  1.980100e+01    1.316164e+00
  1.991213e+01    1.314430e+00
  2.002325e+01    1.274317e+00
  2.013438e+01    1.280732e+00
  2.024551e+01    1.272587e+00
  2.035664e+01    1.249023e+00
  2.046777e+01    1.249581e+00
  2.057890e+01    1.222498e+00
  2.069003e+01    1.217204e+00
  2.080116e+01    1.229192e+00
  2.091229e+01    1.261874e+00
  2.102342e+01    1.205717e+00
  2.113455e+01    1.219033e+00
  2.124567e+01    1.261885e+00
  2.135680e+01    1.266527e+00
  2.146793e+01    1.375620e+00
  2.157906e+01    1.633669e+00
  2.169019e+01    2.479297e+00
  2.180132e+01    5.853657e+00
  2.191245e+01    8.825500e+00
  2.202358e+01    3.688734e+00
  2.213471e+01    1.884131e+00
  2.224584e+01    1.409992e+00
  2.235696e+01    1.250653e+00
  2.246809e+01    1.184098e+00
  2.257922e+01    1.090960e+00
  2.269035e+01    1.099960e+00
  2.280148e+01    1.061750e+00
  2.291261e+01    1.044518e+00
  2.302374e+01    1.020043e+00
  2.313487e+01    1.000817e+00
  2.324600e+01    9.825720e-01
  2.335713e+01    9.852952e-01
  2.346825e+01    9.584205e-01
  2.357938e+01    9.638418e-01
  2.369051e+01    9.418916e-01
  2.380164e+01    9.283964e-01
  2.391277e+01    9.076571e-01
  2.402390e+01    8.977581e-01
  2.413503e+01    8.759763e-01
  2.424616e+01    8.776168e-01
  2.435729e+01    8.896059e-01
  2.446842e+01    9.079846e-01
  2.457954e+01    9.130438e-01
  2.469067e+01    8.924262e-01
  2.480180e+01    8.974917e-01
  2.491293e+01    8.958113e-01
  2.502406e+01    8.999571e-01
  2.513519e+01    8.892546e-01
  2.524632e+01    9.327286e-01
  2.535745e+01    9.657589e-01
  2.546858e+01    1.036569e+00
  2.557971e+01    1.159001e+00
  2.569083e+01    1.529756e+00
  2.580196e+01    2.786471e+00
  2.591309e+01    6.396404e+00
  2.602422e+01    5.313891e+00
  2.613535e+01    2.178232e+00
  2.624648e+01    1.342424e+00
  2.635761e+01    1.104859e+00
  2.646874e+01    1.055471e+00
  2.657987e+01    9.865466e-01
  2.669100e+01    9.800968e-01
  2.680212e+01    9.860805e-01
  2.691325e+01    9.776205e-01
  2.702438e+01    1.142956e+00
  2.713551e+01    1.780296e+00
  2.724664e+01    2.125652e+00
  2.735777e+01    1.280204e+00
  2.746890e+01    1.028700e+00
  2.758003e+01    9.430065e-01
  2.769116e+01    9.129317e-01
  2.780229e+01    8.982227e-01
  2.791342e+01    8.486483e-01
  2.802454e+01    8.536276e-01
  2.813567e+01    8.594804e-01
  2.824680e+01    8.587143e-01
  2.835793e+01    8.477471e-01
  2.846906e+01    8.449304e-01
  2.858019e+01    8.508135e-01
  2.869132e+01    8.286799e-01
  2.880245e+01    8.414727e-01
  2.891358e+01    8.270777e-01
  2.902471e+01    8.157140e-01
  2.913583e+01    8.372232e-01
  2.924696e+01    8.131689e-01
  2.935809e+01    8.045329e-01
  2.946922e+01    8.098559e-01
  2.958035e+01    8.014737e-01
  2.969148e+01    7.850715e-01
  2.980261e+01    7.959846e-01
  2.991374e+01    8.015202e-01
  3.002487e+01    8.166032e-01
  3.013600e+01    7.903396e-01
  3.024712e+01    7.717328e-01
  3.035825e+01    7.681260e-01
  3.046938e+01    7.857345e-01
  3.058051e+01    8.102058e-01
  3.069164e+01    7.968029e-01
  3.080277e+01    7.874106e-01
  3.091390e+01    8.028098e-01
  3.102503e+01    7.957332e-01
  3.113616e+01    7.917663e-01
  3.124729e+01    7.970579e-01
  3.135841e+01    8.163433e-01
  3.146954e+01    8.339536e-01
  3.158067e+01    8.634343e-01
  3.169180e+01    9.736565e-01
  3.180293e+01    1.477280e+00
  3.191406e+01    2.113010e+00
  3.202519e+01    1.303022e+00
  3.213632e+01    9.415350e-01
  3.224745e+01    8.442041e-01
  3.235858e+01    8.060431e-01
  3.246970e+01    7.594694e-01
  3.254908e+01    7.731887e-01