File: XRD/Reaction conditions/2024-07-27_003_Ru-CGO-ex_Reaction_dwell_000023_data_000120.dat
# == pyFAI calibration ==
# Distance Sample to Detector: 0.4 m
# PONI: 9.750e-02, 1.135e-01 m
# Rotations: -0.000175 0.000000 -0.000000 rad
#
# == Fit2d calibration ==
# Distance Sample-beamCenter: 400.000 mm
# Center: x=1514.000, y=1300.000 pix
# Tilt: 0.010 deg  TiltPlanRot: 0.010 deg
#
# Detector Detector	 Spline= None	 PixelSize= 7.500e-05, 7.500e-05 m
#    Detector has a mask: False
#    Detector has a dark current: False
#    detector has a flat field: False
#
# Wavelength: 6.888e-11 m
# Mask applied: user provided
# Dark current applied: False
# Flat field applied: False
# Polarization factor: 0.99
# Normalization factor: 1.0
# --> /home/myspot/data/2024_07_Rosario/Ru-CGO-ex/2024-07-27_003_Ru-CGO-ex_Reaction_dwell_000023_data_000120.dat
#       q_nm^-1             I
  2.003187e-02    0.000000e+00
  1.311609e-01    7.913395e-02
  2.422899e-01    5.163159e-02
  3.534189e-01    4.215618e-02
  4.645479e-01    4.265846e-02
  5.756770e-01    4.428100e-02
  6.868060e-01    7.631213e-02
  7.979350e-01    1.300473e-01
  9.090640e-01    7.224371e-01
  1.020193e+00    1.292205e+00
  1.131322e+00    1.660335e+00
  1.242451e+00    2.371031e+00
  1.353580e+00    2.903750e+00
  1.464709e+00    2.935287e+00
  1.575838e+00    3.135682e+00
  1.686967e+00    3.138616e+00
  1.798096e+00    2.999041e+00
  1.909225e+00    2.961585e+00
  2.020354e+00    3.030463e+00
  2.131483e+00    3.112089e+00
  2.242612e+00    3.149021e+00
  2.353741e+00    3.149061e+00
  2.464870e+00    3.086269e+00
  2.575999e+00    3.272838e+00
  2.687128e+00    3.264796e+00
  2.798257e+00    3.341095e+00
  2.909386e+00    3.338279e+00
  3.020515e+00    3.319915e+00
  3.131644e+00    3.273893e+00
  3.242773e+00    3.461322e+00
  3.353902e+00    3.355497e+00
  3.465031e+00    3.397204e+00
  3.576160e+00    3.439415e+00
  3.687289e+00    3.456972e+00
  3.798418e+00    3.539445e+00
  3.909547e+00    3.471069e+00
  4.020676e+00    3.571245e+00
  4.131806e+00    3.448151e+00
  4.242935e+00    3.508906e+00
  4.354064e+00    3.461129e+00
  4.465193e+00    3.668034e+00
  4.576322e+00    3.541426e+00
  4.687451e+00    3.616138e+00
  4.798580e+00    3.640476e+00
  4.909709e+00    3.717128e+00
  5.020838e+00    3.670374e+00
  5.131967e+00    3.632499e+00
  5.243096e+00    3.655572e+00
  5.354225e+00    3.624409e+00
  5.465354e+00    3.587594e+00
  5.576483e+00    3.681314e+00
  5.687612e+00    3.592824e+00
  5.798741e+00    3.534992e+00
  5.909870e+00    3.509063e+00
  6.020999e+00    3.509553e+00
  6.132128e+00    3.608246e+00
  6.243257e+00    3.599200e+00
  6.354386e+00    3.522113e+00
  6.465515e+00    3.518489e+00
  6.576644e+00    3.598501e+00
  6.687773e+00    3.500118e+00
  6.798902e+00    3.563677e+00
  6.910031e+00    3.541025e+00
  7.021160e+00    3.548895e+00
  7.132289e+00    3.506570e+00
  7.243418e+00    3.533985e+00
  7.354547e+00    3.473860e+00
  7.465676e+00    3.509462e+00
  7.576805e+00    3.419979e+00
  7.687934e+00    3.432143e+00
  7.799063e+00    3.441080e+00
  7.910192e+00    3.384739e+00
  8.021321e+00    3.474449e+00
  8.132450e+00    3.503016e+00
  8.243579e+00    3.420863e+00
  8.354708e+00    3.371896e+00
  8.465837e+00    3.380237e+00
  8.576966e+00    3.349672e+00
  8.688095e+00    3.341770e+00
  8.799224e+00    3.277233e+00
  8.910353e+00    3.298478e+00
  9.021482e+00    3.305502e+00
  9.132611e+00    3.265880e+00
  9.243740e+00    3.271944e+00
  9.354869e+00    3.226694e+00
  9.465998e+00    3.178005e+00
  9.577127e+00    3.147607e+00
  9.688256e+00    3.114853e+00
  9.799385e+00    3.122224e+00
  9.910514e+00    3.136056e+00
  1.002164e+01    3.141537e+00
  1.013277e+01    3.117501e+00
  1.024390e+01    3.062550e+00
  1.035503e+01    3.105203e+00
  1.046616e+01    3.003236e+00
  1.057729e+01    3.001878e+00
  1.068842e+01    2.979561e+00
  1.079955e+01    2.974757e+00
  1.091068e+01    2.904475e+00
  1.102180e+01    2.882792e+00
  1.113293e+01    2.894682e+00
  1.124406e+01    2.838270e+00
  1.135519e+01    2.823303e+00
  1.146632e+01    2.830119e+00
  1.157745e+01    2.808944e+00
  1.168858e+01    2.793788e+00
  1.179971e+01    2.750827e+00
  1.191084e+01    2.736345e+00
  1.202197e+01    2.695394e+00
  1.213309e+01    2.678625e+00
  1.224422e+01    2.718990e+00
  1.235535e+01    2.652541e+00
  1.246648e+01    2.664621e+00
  1.257761e+01    2.711929e+00
  1.268874e+01    2.801989e+00
  1.279987e+01    3.010233e+00
  1.291100e+01    3.657132e+00
  1.302213e+01    6.739020e+00
  1.313326e+01    1.481165e+01
  1.324438e+01    1.072106e+01
  1.335551e+01    4.434583e+00
  1.346664e+01    3.095645e+00
  1.357777e+01    2.764786e+00
  1.368890e+01    2.588411e+00
  1.380003e+01    2.485162e+00
  1.391116e+01    2.454303e+00
  1.402229e+01    2.319910e+00
  1.413342e+01    2.302784e+00
  1.424455e+01    2.282546e+00
  1.435568e+01    2.242938e+00
  1.446680e+01    2.210623e+00
  1.457793e+01    2.240813e+00
  1.468906e+01    2.227908e+00
  1.480019e+01    2.210518e+00
  1.491132e+01    2.233694e+00
  1.502245e+01    2.536198e+00
  1.513358e+01    3.778341e+00
  1.524471e+01    5.785088e+00
  1.535584e+01    3.746305e+00
  1.546697e+01    2.450507e+00
  1.557809e+01    2.163287e+00
  1.568922e+01    2.006426e+00
  1.580035e+01    1.989782e+00
  1.591148e+01    1.876312e+00
  1.602261e+01    1.901208e+00
  1.613374e+01    1.801171e+00
  1.624487e+01    1.840671e+00
  1.635600e+01    1.782935e+00
  1.646713e+01    1.771501e+00
  1.657826e+01    1.724385e+00
  1.668938e+01    1.700814e+00
  1.680051e+01    1.720049e+00
  1.691164e+01    1.717454e+00
  1.702277e+01    1.671750e+00
  1.713390e+01    1.632679e+00
  1.724503e+01    1.608829e+00
  1.735616e+01    1.575137e+00
  1.746729e+01    1.621576e+00
  1.757842e+01    1.594706e+00
  1.768955e+01    1.534582e+00
  1.780067e+01    1.559761e+00
  1.791180e+01    1.510543e+00
  1.802293e+01    1.478284e+00
  1.813406e+01    1.532526e+00
  1.824519e+01    1.491503e+00
  1.835632e+01    1.485138e+00
  1.846745e+01    1.432920e+00
  1.857858e+01    1.432659e+00
  1.868971e+01    1.406910e+00
  1.880084e+01    1.398275e+00
  1.891196e+01    1.407201e+00
  1.902309e+01    1.388206e+00
  1.913422e+01    1.336636e+00
  1.924535e+01    1.341394e+00
  1.935648e+01    1.375073e+00
  1.946761e+01    1.288191e+00
  1.957874e+01    1.341263e+00
  1.968987e+01    1.320047e+00
  1.980100e+01    1.302529e+00
  1.991213e+01    1.296493e+00
  2.002325e+01    1.278272e+00
  2.013438e+01    1.259912e+00
  2.024551e+01    1.258562e+00
  2.035664e+01    1.232860e+00
  2.046777e+01    1.214844e+00
  2.057890e+01    1.248437e+00
  2.069003e+01    1.216345e+00
  2.080116e+01    1.224960e+00
  2.091229e+01    1.222523e+00
  2.102342e+01    1.234489e+00
  2.113455e+01    1.209943e+00
  2.124567e+01    1.224574e+00
  2.135680e+01    1.279660e+00
  2.146793e+01    1.378360e+00
  2.157906e+01    1.611795e+00
  2.169019e+01    2.537126e+00
  2.180132e+01    5.879594e+00
  2.191245e+01    8.845559e+00
  2.202358e+01    3.622397e+00
  2.213471e+01    1.855274e+00
  2.224584e+01    1.390133e+00
  2.235696e+01    1.264282e+00
  2.246809e+01    1.163552e+00
  2.257922e+01    1.120269e+00
  2.269035e+01    1.086542e+00
  2.280148e+01    1.064651e+00
  2.291261e+01    1.018428e+00
  2.302374e+01    1.015201e+00
  2.313487e+01    9.909953e-01
  2.324600e+01    9.872419e-01
  2.335713e+01    9.727299e-01
  2.346825e+01    9.556545e-01
  2.357938e+01    9.678851e-01
  2.369051e+01    9.468081e-01
  2.380164e+01    9.017428e-01
  2.391277e+01    9.158355e-01
  2.402390e+01    9.013665e-01
  2.413503e+01    8.910851e-01
  2.424616e+01    8.788043e-01
  2.435729e+01    8.976582e-01
  2.446842e+01    8.981838e-01
  2.457954e+01    8.824962e-01
  2.469067e+01    8.872358e-01
  2.480180e+01    8.857220e-01
  2.491293e+01    8.714721e-01
  2.502406e+01    8.981296e-01
  2.513519e+01    8.956082e-01
  2.524632e+01    9.073866e-01
  2.535745e+01    9.866729e-01
  2.546858e+01    1.048670e+00
  2.557971e+01    1.148590e+00
  2.569083e+01    1.502668e+00
  2.580196e+01    2.811917e+00
  2.591309e+01    6.364604e+00
  2.602422e+01    5.286312e+00
  2.613535e+01    2.132726e+00
  2.624648e+01    1.331074e+00
  2.635761e+01    1.093075e+00
  2.646874e+01    1.027990e+00
  2.657987e+01    9.713907e-01
  2.669100e+01    9.597850e-01
  2.680212e+01    9.949157e-01
  2.691325e+01    1.012151e+00
  2.702438e+01    1.150194e+00
  2.713551e+01    1.763798e+00
  2.724664e+01    2.090117e+00
  2.735777e+01    1.289907e+00
  2.746890e+01    1.017419e+00
  2.758003e+01    9.452261e-01
  2.769116e+01    9.170764e-01
  2.780229e+01    9.110377e-01
  2.791342e+01    8.825325e-01
  2.802454e+01    8.559793e-01
  2.813567e+01    8.724814e-01
  2.824680e+01    8.589111e-01
  2.835793e+01    8.765202e-01
  2.846906e+01    8.382732e-01
  2.858019e+01    8.158659e-01
  2.869132e+01    8.396773e-01
  2.880245e+01    8.285143e-01
  2.891358e+01    8.003268e-01
  2.902471e+01    8.026588e-01
  2.913583e+01    8.241925e-01
  2.924696e+01    8.075863e-01
  2.935809e+01    7.945346e-01
  2.946922e+01    8.129290e-01
  2.958035e+01    8.244879e-01
  2.969148e+01    8.151600e-01
  2.980261e+01    8.246197e-01
  2.991374e+01    8.005316e-01
  3.002487e+01    8.214082e-01
  3.013600e+01    8.096995e-01
  3.024712e+01    7.648237e-01
  3.035825e+01    7.738649e-01
  3.046938e+01    7.890574e-01
  3.058051e+01    7.857794e-01
  3.069164e+01    7.770460e-01
  3.080277e+01    7.813636e-01
  3.091390e+01    7.625256e-01
  3.102503e+01    7.776375e-01
  3.113616e+01    7.769347e-01
  3.124729e+01    8.046770e-01
  3.135841e+01    7.941955e-01
  3.146954e+01    8.289663e-01
  3.158067e+01    8.807501e-01
  3.169180e+01    9.790268e-01
  3.180293e+01    1.467166e+00
  3.191406e+01    2.094674e+00
  3.202519e+01    1.325696e+00
  3.213632e+01    9.618386e-01
  3.224745e+01    8.288823e-01
  3.235858e+01    8.070830e-01
  3.246970e+01    7.562342e-01
  3.254908e+01    7.736268e-01