File: XRD/Reaction conditions/2024-07-27_003_Ru-CGO-ex_Reaction_dwell_000023_data_000178.dat
# == pyFAI calibration ==
# Distance Sample to Detector: 0.4 m
# PONI: 9.750e-02, 1.135e-01 m
# Rotations: -0.000175 0.000000 -0.000000 rad
#
# == Fit2d calibration ==
# Distance Sample-beamCenter: 400.000 mm
# Center: x=1514.000, y=1300.000 pix
# Tilt: 0.010 deg  TiltPlanRot: 0.010 deg
#
# Detector Detector	 Spline= None	 PixelSize= 7.500e-05, 7.500e-05 m
#    Detector has a mask: False
#    Detector has a dark current: False
#    detector has a flat field: False
#
# Wavelength: 6.888e-11 m
# Mask applied: user provided
# Dark current applied: False
# Flat field applied: False
# Polarization factor: 0.99
# Normalization factor: 1.0
# --> /home/myspot/data/2024_07_Rosario/Ru-CGO-ex/2024-07-27_003_Ru-CGO-ex_Reaction_dwell_000023_data_000178.dat
#       q_nm^-1             I
  2.003187e-02    1.542358e-01
  1.311609e-01    2.983733e-02
  2.422899e-01    2.832684e-02
  3.534189e-01    3.755427e-02
  4.645479e-01    2.942593e-02
  5.756770e-01    4.550901e-02
  6.868060e-01    5.853356e-02
  7.979350e-01    2.211888e-01
  9.090640e-01    6.116668e-01
  1.020193e+00    1.234936e+00
  1.131322e+00    1.591567e+00
  1.242451e+00    2.413458e+00
  1.353580e+00    2.775422e+00
  1.464709e+00    2.936024e+00
  1.575838e+00    3.225212e+00
  1.686967e+00    3.002727e+00
  1.798096e+00    2.888914e+00
  1.909225e+00    3.112327e+00
  2.020354e+00    2.902091e+00
  2.131483e+00    2.920088e+00
  2.242612e+00    3.079156e+00
  2.353741e+00    3.042716e+00
  2.464870e+00    3.174031e+00
  2.575999e+00    3.078564e+00
  2.687128e+00    3.303217e+00
  2.798257e+00    3.186438e+00
  2.909386e+00    3.396664e+00
  3.020515e+00    3.169082e+00
  3.131644e+00    3.367704e+00
  3.242773e+00    3.421542e+00
  3.353902e+00    3.319173e+00
  3.465031e+00    3.435329e+00
  3.576160e+00    3.367058e+00
  3.687289e+00    3.420321e+00
  3.798418e+00    3.315689e+00
  3.909547e+00    3.468529e+00
  4.020676e+00    3.519788e+00
  4.131806e+00    3.424825e+00
  4.242935e+00    3.497503e+00
  4.354064e+00    3.602195e+00
  4.465193e+00    3.470285e+00
  4.576322e+00    3.515581e+00
  4.687451e+00    3.686415e+00
  4.798580e+00    3.567264e+00
  4.909709e+00    3.610608e+00
  5.020838e+00    3.691378e+00
  5.131967e+00    3.621894e+00
  5.243096e+00    3.600156e+00
  5.354225e+00    3.584320e+00
  5.465354e+00    3.471590e+00
  5.576483e+00    3.608285e+00
  5.687612e+00    3.505263e+00
  5.798741e+00    3.527453e+00
  5.909870e+00    3.428136e+00
  6.020999e+00    3.492281e+00
  6.132128e+00    3.491371e+00
  6.243257e+00    3.575088e+00
  6.354386e+00    3.496874e+00
  6.465515e+00    3.583107e+00
  6.576644e+00    3.452452e+00
  6.687773e+00    3.530792e+00
  6.798902e+00    3.480556e+00
  6.910031e+00    3.564234e+00
  7.021160e+00    3.462087e+00
  7.132289e+00    3.497966e+00
  7.243418e+00    3.492681e+00
  7.354547e+00    3.511748e+00
  7.465676e+00    3.501995e+00
  7.576805e+00    3.459642e+00
  7.687934e+00    3.399618e+00
  7.799063e+00    3.347391e+00
  7.910192e+00    3.426534e+00
  8.021321e+00    3.420213e+00
  8.132450e+00    3.467001e+00
  8.243579e+00    3.396776e+00
  8.354708e+00    3.254852e+00
  8.465837e+00    3.337263e+00
  8.576966e+00    3.316739e+00
  8.688095e+00    3.279685e+00
  8.799224e+00    3.250022e+00
  8.910353e+00    3.263601e+00
  9.021482e+00    3.260815e+00
  9.132611e+00    3.171183e+00
  9.243740e+00    3.164219e+00
  9.354869e+00    3.192589e+00
  9.465998e+00    3.205948e+00
  9.577127e+00    3.095171e+00
  9.688256e+00    3.094715e+00
  9.799385e+00    3.167090e+00
  9.910514e+00    3.087639e+00
  1.002164e+01    3.113048e+00
  1.013277e+01    3.040330e+00
  1.024390e+01    3.043489e+00
  1.035503e+01    3.034691e+00
  1.046616e+01    2.986239e+00
  1.057729e+01    2.953079e+00
  1.068842e+01    2.932189e+00
  1.079955e+01    2.924844e+00
  1.091068e+01    2.860403e+00
  1.102180e+01    2.827383e+00
  1.113293e+01    2.798586e+00
  1.124406e+01    2.820004e+00
  1.135519e+01    2.786027e+00
  1.146632e+01    2.804373e+00
  1.157745e+01    2.731348e+00
  1.168858e+01    2.701380e+00
  1.179971e+01    2.661165e+00
  1.191084e+01    2.693380e+00
  1.202197e+01    2.660570e+00
  1.213309e+01    2.712954e+00
  1.224422e+01    2.661084e+00
  1.235535e+01    2.592170e+00
  1.246648e+01    2.667290e+00
  1.257761e+01    2.714877e+00
  1.268874e+01    2.776588e+00
  1.279987e+01    2.945730e+00
  1.291100e+01    3.634689e+00
  1.302213e+01    6.612869e+00
  1.313326e+01    1.451432e+01
  1.324438e+01    1.054647e+01
  1.335551e+01    4.346996e+00
  1.346664e+01    3.093193e+00
  1.357777e+01    2.706399e+00
  1.368890e+01    2.542981e+00
  1.380003e+01    2.443812e+00
  1.391116e+01    2.399037e+00
  1.402229e+01    2.313515e+00
  1.413342e+01    2.288601e+00
  1.424455e+01    2.237236e+00
  1.435568e+01    2.203221e+00
  1.446680e+01    2.125891e+00
  1.457793e+01    2.205866e+00
  1.468906e+01    2.190611e+00
  1.480019e+01    2.194394e+00
  1.491132e+01    2.244028e+00
  1.502245e+01    2.488360e+00
  1.513358e+01    3.721407e+00
  1.524471e+01    5.736133e+00
  1.535584e+01    3.707764e+00
  1.546697e+01    2.402403e+00
  1.557809e+01    2.122910e+00
  1.568922e+01    1.967037e+00
  1.580035e+01    1.935947e+00
  1.591148e+01    1.875194e+00
  1.602261e+01    1.854245e+00
  1.613374e+01    1.770678e+00
  1.624487e+01    1.786131e+00
  1.635600e+01    1.801916e+00
  1.646713e+01    1.742341e+00
  1.657826e+01    1.740631e+00
  1.668938e+01    1.698461e+00
  1.680051e+01    1.693224e+00
  1.691164e+01    1.655894e+00
  1.702277e+01    1.600106e+00
  1.713390e+01    1.661534e+00
  1.724503e+01    1.597679e+00
  1.735616e+01    1.590265e+00
  1.746729e+01    1.590674e+00
  1.757842e+01    1.572135e+00
  1.768955e+01    1.513612e+00
  1.780067e+01    1.521273e+00
  1.791180e+01    1.490818e+00
  1.802293e+01    1.517179e+00
  1.813406e+01    1.510593e+00
  1.824519e+01    1.482287e+00
  1.835632e+01    1.432295e+00
  1.846745e+01    1.444223e+00
  1.857858e+01    1.408375e+00
  1.868971e+01    1.402318e+00
  1.880084e+01    1.384418e+00
  1.891196e+01    1.380571e+00
  1.902309e+01    1.352338e+00
  1.913422e+01    1.352067e+00
  1.924535e+01    1.343697e+00
  1.935648e+01    1.335467e+00
  1.946761e+01    1.321290e+00
  1.957874e+01    1.297299e+00
  1.968987e+01    1.307249e+00
  1.980100e+01    1.279813e+00
  1.991213e+01    1.285911e+00
  2.002325e+01    1.275453e+00
  2.013438e+01    1.295088e+00
  2.024551e+01    1.253387e+00
  2.035664e+01    1.224746e+00
  2.046777e+01    1.206586e+00
  2.057890e+01    1.222230e+00
  2.069003e+01    1.198380e+00
  2.080116e+01    1.210531e+00
  2.091229e+01    1.204819e+00
  2.102342e+01    1.186898e+00
  2.113455e+01    1.188778e+00
  2.124567e+01    1.234850e+00
  2.135680e+01    1.265396e+00
  2.146793e+01    1.342968e+00
  2.157906e+01    1.612933e+00
  2.169019e+01    2.463753e+00
  2.180132e+01    5.673695e+00
  2.191245e+01    8.610387e+00
  2.202358e+01    3.584776e+00
  2.213471e+01    1.839736e+00
  2.224584e+01    1.417049e+00
  2.235696e+01    1.252354e+00
  2.246809e+01    1.153683e+00
  2.257922e+01    1.069774e+00
  2.269035e+01    1.060004e+00
  2.280148e+01    1.046415e+00
  2.291261e+01    1.024641e+00
  2.302374e+01    1.009663e+00
  2.313487e+01    1.007228e+00
  2.324600e+01    9.757563e-01
  2.335713e+01    9.861303e-01
  2.346825e+01    9.469982e-01
  2.357938e+01    9.537757e-01
  2.369051e+01    9.453118e-01
  2.380164e+01    9.058194e-01
  2.391277e+01    9.051757e-01
  2.402390e+01    8.934618e-01
  2.413503e+01    8.624690e-01
  2.424616e+01    8.632081e-01
  2.435729e+01    8.866943e-01
  2.446842e+01    8.989247e-01
  2.457954e+01    8.848419e-01
  2.469067e+01    8.900017e-01
  2.480180e+01    8.850719e-01
  2.491293e+01    8.689042e-01
  2.502406e+01    8.899497e-01
  2.513519e+01    9.005913e-01
  2.524632e+01    9.287511e-01
  2.535745e+01    9.659848e-01
  2.546858e+01    1.031441e+00
  2.557971e+01    1.150345e+00
  2.569083e+01    1.484982e+00
  2.580196e+01    2.748623e+00
  2.591309e+01    6.271595e+00
  2.602422e+01    5.184102e+00
  2.613535e+01    2.112698e+00
  2.624648e+01    1.334469e+00
  2.635761e+01    1.090457e+00
  2.646874e+01    1.018352e+00
  2.657987e+01    9.818701e-01
  2.669100e+01    9.741819e-01
  2.680212e+01    9.641563e-01
  2.691325e+01    1.004554e+00
  2.702438e+01    1.129606e+00
  2.713551e+01    1.728807e+00
  2.724664e+01    2.050613e+00
  2.735777e+01    1.246211e+00
  2.746890e+01    1.020235e+00
  2.758003e+01    9.441108e-01
  2.769116e+01    8.834440e-01
  2.780229e+01    8.636886e-01
  2.791342e+01    8.742018e-01
  2.802454e+01    8.376287e-01
  2.813567e+01    8.450820e-01
  2.824680e+01    8.407413e-01
  2.835793e+01    8.239425e-01
  2.846906e+01    8.250873e-01
  2.858019e+01    8.289940e-01
  2.869132e+01    8.302584e-01
  2.880245e+01    8.154838e-01
  2.891358e+01    8.070415e-01
  2.902471e+01    8.128998e-01
  2.913583e+01    7.922442e-01
  2.924696e+01    7.961866e-01
  2.935809e+01    8.168368e-01
  2.946922e+01    7.963701e-01
  2.958035e+01    7.772806e-01
  2.969148e+01    7.978417e-01
  2.980261e+01    7.883598e-01
  2.991374e+01    7.835078e-01
  3.002487e+01    8.078895e-01
  3.013600e+01    7.988034e-01
  3.024712e+01    7.871704e-01
  3.035825e+01    7.784009e-01
  3.046938e+01    7.681643e-01
  3.058051e+01    7.732328e-01
  3.069164e+01    7.781683e-01
  3.080277e+01    7.632266e-01
  3.091390e+01    7.733372e-01
  3.102503e+01    7.754133e-01
  3.113616e+01    7.874377e-01
  3.124729e+01    7.962038e-01
  3.135841e+01    7.878678e-01
  3.146954e+01    8.063567e-01
  3.158067e+01    8.318554e-01
  3.169180e+01    9.875560e-01
  3.180293e+01    1.476191e+00
  3.191406e+01    2.064556e+00
  3.202519e+01    1.336834e+00
  3.213632e+01    9.344950e-01
  3.224745e+01    8.271615e-01
  3.235858e+01    8.051425e-01
  3.246970e+01    7.755951e-01
  3.254908e+01    7.894300e-01