File: XRD/Reaction conditions/2024-07-27_003_Ru-CGO-ex_Reaction_dwell_000023_data_000127.dat
# == pyFAI calibration ==
# Distance Sample to Detector: 0.4 m
# PONI: 9.750e-02, 1.135e-01 m
# Rotations: -0.000175 0.000000 -0.000000 rad
#
# == Fit2d calibration ==
# Distance Sample-beamCenter: 400.000 mm
# Center: x=1514.000, y=1300.000 pix
# Tilt: 0.010 deg  TiltPlanRot: 0.010 deg
#
# Detector Detector	 Spline= None	 PixelSize= 7.500e-05, 7.500e-05 m
#    Detector has a mask: False
#    Detector has a dark current: False
#    detector has a flat field: False
#
# Wavelength: 6.888e-11 m
# Mask applied: user provided
# Dark current applied: False
# Flat field applied: False
# Polarization factor: 0.99
# Normalization factor: 1.0
# --> /home/myspot/data/2024_07_Rosario/Ru-CGO-ex/2024-07-27_003_Ru-CGO-ex_Reaction_dwell_000023_data_000127.dat
#       q_nm^-1             I
  2.003187e-02    1.542387e-01
  1.311609e-01    4.137332e-02
  2.422899e-01    3.986654e-02
  3.534189e-01    8.241451e-02
  4.645479e-01    1.169215e-02
  5.756770e-01    5.516829e-02
  6.868060e-01    3.955303e-02
  7.979350e-01    1.865333e-01
  9.090640e-01    6.059864e-01
  1.020193e+00    1.200933e+00
  1.131322e+00    1.651029e+00
  1.242451e+00    2.475431e+00
  1.353580e+00    2.684174e+00
  1.464709e+00    3.123776e+00
  1.575838e+00    3.207118e+00
  1.686967e+00    2.941821e+00
  1.798096e+00    3.087008e+00
  1.909225e+00    3.212714e+00
  2.020354e+00    3.013353e+00
  2.131483e+00    3.179306e+00
  2.242612e+00    3.099122e+00
  2.353741e+00    3.034016e+00
  2.464870e+00    3.080199e+00
  2.575999e+00    3.054329e+00
  2.687128e+00    3.276727e+00
  2.798257e+00    3.282449e+00
  2.909386e+00    3.348533e+00
  3.020515e+00    3.314512e+00
  3.131644e+00    3.416027e+00
  3.242773e+00    3.346051e+00
  3.353902e+00    3.433476e+00
  3.465031e+00    3.468438e+00
  3.576160e+00    3.510966e+00
  3.687289e+00    3.471677e+00
  3.798418e+00    3.515380e+00
  3.909547e+00    3.470316e+00
  4.020676e+00    3.535882e+00
  4.131806e+00    3.494331e+00
  4.242935e+00    3.558581e+00
  4.354064e+00    3.508797e+00
  4.465193e+00    3.615757e+00
  4.576322e+00    3.560860e+00
  4.687451e+00    3.628524e+00
  4.798580e+00    3.623943e+00
  4.909709e+00    3.638435e+00
  5.020838e+00    3.621446e+00
  5.131967e+00    3.581064e+00
  5.243096e+00    3.632250e+00
  5.354225e+00    3.602794e+00
  5.465354e+00    3.600161e+00
  5.576483e+00    3.550486e+00
  5.687612e+00    3.536025e+00
  5.798741e+00    3.501576e+00
  5.909870e+00    3.464207e+00
  6.020999e+00    3.465760e+00
  6.132128e+00    3.507586e+00
  6.243257e+00    3.541462e+00
  6.354386e+00    3.518665e+00
  6.465515e+00    3.677753e+00
  6.576644e+00    3.533233e+00
  6.687773e+00    3.467404e+00
  6.798902e+00    3.591794e+00
  6.910031e+00    3.551275e+00
  7.021160e+00    3.547564e+00
  7.132289e+00    3.522204e+00
  7.243418e+00    3.498523e+00
  7.354547e+00    3.446515e+00
  7.465676e+00    3.402515e+00
  7.576805e+00    3.444015e+00
  7.687934e+00    3.437340e+00
  7.799063e+00    3.478601e+00
  7.910192e+00    3.427170e+00
  8.021321e+00    3.423593e+00
  8.132450e+00    3.417867e+00
  8.243579e+00    3.474284e+00
  8.354708e+00    3.373217e+00
  8.465837e+00    3.319336e+00
  8.576966e+00    3.349056e+00
  8.688095e+00    3.383974e+00
  8.799224e+00    3.325215e+00
  8.910353e+00    3.264881e+00
  9.021482e+00    3.256181e+00
  9.132611e+00    3.298963e+00
  9.243740e+00    3.286010e+00
  9.354869e+00    3.211114e+00
  9.465998e+00    3.184004e+00
  9.577127e+00    3.241330e+00
  9.688256e+00    3.162473e+00
  9.799385e+00    3.183345e+00
  9.910514e+00    3.148946e+00
  1.002164e+01    3.100336e+00
  1.013277e+01    3.088131e+00
  1.024390e+01    3.074651e+00
  1.035503e+01    3.026737e+00
  1.046616e+01    2.971203e+00
  1.057729e+01    3.013534e+00
  1.068842e+01    2.950321e+00
  1.079955e+01    2.938185e+00
  1.091068e+01    2.886745e+00
  1.102180e+01    2.912962e+00
  1.113293e+01    2.865836e+00
  1.124406e+01    2.807332e+00
  1.135519e+01    2.799384e+00
  1.146632e+01    2.815225e+00
  1.157745e+01    2.762061e+00
  1.168858e+01    2.731407e+00
  1.179971e+01    2.742080e+00
  1.191084e+01    2.719254e+00
  1.202197e+01    2.688339e+00
  1.213309e+01    2.686938e+00
  1.224422e+01    2.644673e+00
  1.235535e+01    2.649863e+00
  1.246648e+01    2.711620e+00
  1.257761e+01    2.726516e+00
  1.268874e+01    2.765918e+00
  1.279987e+01    3.006082e+00
  1.291100e+01    3.667166e+00
  1.302213e+01    6.807478e+00
  1.313326e+01    1.495845e+01
  1.324438e+01    1.052327e+01
  1.335551e+01    4.488723e+00
  1.346664e+01    3.139545e+00
  1.357777e+01    2.759774e+00
  1.368890e+01    2.588281e+00
  1.380003e+01    2.483324e+00
  1.391116e+01    2.383919e+00
  1.402229e+01    2.373043e+00
  1.413342e+01    2.306037e+00
  1.424455e+01    2.247436e+00
  1.435568e+01    2.225132e+00
  1.446680e+01    2.220050e+00
  1.457793e+01    2.235101e+00
  1.468906e+01    2.211715e+00
  1.480019e+01    2.188710e+00
  1.491132e+01    2.266705e+00
  1.502245e+01    2.473440e+00
  1.513358e+01    3.743623e+00
  1.524471e+01    5.824086e+00
  1.535584e+01    3.723219e+00
  1.546697e+01    2.443085e+00
  1.557809e+01    2.146435e+00
  1.568922e+01    1.977941e+00
  1.580035e+01    1.911952e+00
  1.591148e+01    1.930014e+00
  1.602261e+01    1.878746e+00
  1.613374e+01    1.808976e+00
  1.624487e+01    1.818490e+00
  1.635600e+01    1.792126e+00
  1.646713e+01    1.772436e+00
  1.657826e+01    1.745309e+00
  1.668938e+01    1.712785e+00
  1.680051e+01    1.705322e+00
  1.691164e+01    1.690698e+00
  1.702277e+01    1.650956e+00
  1.713390e+01    1.662514e+00
  1.724503e+01    1.638143e+00
  1.735616e+01    1.570387e+00
  1.746729e+01    1.581470e+00
  1.757842e+01    1.557794e+00
  1.768955e+01    1.557328e+00
  1.780067e+01    1.536061e+00
  1.791180e+01    1.521367e+00
  1.802293e+01    1.520051e+00
  1.813406e+01    1.501705e+00
  1.824519e+01    1.457387e+00
  1.835632e+01    1.468231e+00
  1.846745e+01    1.430260e+00
  1.857858e+01    1.432030e+00
  1.868971e+01    1.437613e+00
  1.880084e+01    1.406502e+00
  1.891196e+01    1.376786e+00
  1.902309e+01    1.384123e+00
  1.913422e+01    1.376396e+00
  1.924535e+01    1.366621e+00
  1.935648e+01    1.330794e+00
  1.946761e+01    1.350279e+00
  1.957874e+01    1.307942e+00
  1.968987e+01    1.309151e+00
  1.980100e+01    1.294266e+00
  1.991213e+01    1.301199e+00
  2.002325e+01    1.263589e+00
  2.013438e+01    1.260452e+00
  2.024551e+01    1.266373e+00
  2.035664e+01    1.250804e+00
  2.046777e+01    1.229731e+00
  2.057890e+01    1.218594e+00
  2.069003e+01    1.241839e+00
  2.080116e+01    1.241444e+00
  2.091229e+01    1.241078e+00
  2.102342e+01    1.260298e+00
  2.113455e+01    1.214135e+00
  2.124567e+01    1.240857e+00
  2.135680e+01    1.285074e+00
  2.146793e+01    1.346889e+00
  2.157906e+01    1.604679e+00
  2.169019e+01    2.526671e+00
  2.180132e+01    5.970787e+00
  2.191245e+01    8.676926e+00
  2.202358e+01    3.582199e+00
  2.213471e+01    1.839546e+00
  2.224584e+01    1.404499e+00
  2.235696e+01    1.231935e+00
  2.246809e+01    1.141441e+00
  2.257922e+01    1.111527e+00
  2.269035e+01    1.055828e+00
  2.280148e+01    1.053327e+00
  2.291261e+01    1.039163e+00
  2.302374e+01    1.030029e+00
  2.313487e+01    1.002014e+00
  2.324600e+01    9.791341e-01
  2.335713e+01    9.798149e-01
  2.346825e+01    9.688387e-01
  2.357938e+01    9.599241e-01
  2.369051e+01    9.437252e-01
  2.380164e+01    9.123922e-01
  2.391277e+01    9.017728e-01
  2.402390e+01    9.130648e-01
  2.413503e+01    8.792357e-01
  2.424616e+01    8.783862e-01
  2.435729e+01    9.074340e-01
  2.446842e+01    8.809296e-01
  2.457954e+01    8.902870e-01
  2.469067e+01    8.579389e-01
  2.480180e+01    8.957302e-01
  2.491293e+01    8.944055e-01
  2.502406e+01    8.784370e-01
  2.513519e+01    8.817919e-01
  2.524632e+01    9.250571e-01
  2.535745e+01    9.527265e-01
  2.546858e+01    1.031301e+00
  2.557971e+01    1.163200e+00
  2.569083e+01    1.497673e+00
  2.580196e+01    2.861760e+00
  2.591309e+01    6.335459e+00
  2.602422e+01    5.179028e+00
  2.613535e+01    2.064059e+00
  2.624648e+01    1.361321e+00
  2.635761e+01    1.094319e+00
  2.646874e+01    1.014924e+00
  2.657987e+01    9.468032e-01
  2.669100e+01    9.679149e-01
  2.680212e+01    9.750273e-01
  2.691325e+01    1.005491e+00
  2.702438e+01    1.141865e+00
  2.713551e+01    1.758920e+00
  2.724664e+01    2.028202e+00
  2.735777e+01    1.255595e+00
  2.746890e+01    1.043436e+00
  2.758003e+01    9.188607e-01
  2.769116e+01    9.230842e-01
  2.780229e+01    8.859798e-01
  2.791342e+01    8.494229e-01
  2.802454e+01    8.564786e-01
  2.813567e+01    8.489174e-01
  2.824680e+01    8.535442e-01
  2.835793e+01    8.491191e-01
  2.846906e+01    8.417289e-01
  2.858019e+01    8.417777e-01
  2.869132e+01    8.245178e-01
  2.880245e+01    8.077314e-01
  2.891358e+01    8.212941e-01
  2.902471e+01    8.186437e-01
  2.913583e+01    7.969404e-01
  2.924696e+01    8.176078e-01
  2.935809e+01    8.003824e-01
  2.946922e+01    7.831449e-01
  2.958035e+01    7.881413e-01
  2.969148e+01    7.938660e-01
  2.980261e+01    7.794008e-01
  2.991374e+01    7.758912e-01
  3.002487e+01    8.208811e-01
  3.013600e+01    7.907556e-01
  3.024712e+01    7.729180e-01
  3.035825e+01    7.802870e-01
  3.046938e+01    7.872165e-01
  3.058051e+01    7.867392e-01
  3.069164e+01    7.773067e-01
  3.080277e+01    7.931018e-01
  3.091390e+01    7.868289e-01
  3.102503e+01    7.779365e-01
  3.113616e+01    7.947248e-01
  3.124729e+01    7.903731e-01
  3.135841e+01    7.930823e-01
  3.146954e+01    8.011136e-01
  3.158067e+01    8.495591e-01
  3.169180e+01    9.814376e-01
  3.180293e+01    1.473183e+00
  3.191406e+01    2.087898e+00
  3.202519e+01    1.294248e+00
  3.213632e+01    9.034589e-01
  3.224745e+01    8.136762e-01
  3.235858e+01    7.782051e-01
  3.246970e+01    7.835451e-01
  3.254908e+01    7.777859e-01