File: XRD/Reaction conditions/2024-07-27_003_Ru-CGO-ex_Reaction_dwell_000023_data_000011.dat
# == pyFAI calibration ==
# Distance Sample to Detector: 0.4 m
# PONI: 9.750e-02, 1.135e-01 m
# Rotations: -0.000175 0.000000 -0.000000 rad
#
# == Fit2d calibration ==
# Distance Sample-beamCenter: 400.000 mm
# Center: x=1514.000, y=1300.000 pix
# Tilt: 0.010 deg  TiltPlanRot: 0.010 deg
#
# Detector Detector	 Spline= None	 PixelSize= 7.500e-05, 7.500e-05 m
#    Detector has a mask: False
#    Detector has a dark current: False
#    detector has a flat field: False
#
# Wavelength: 6.888e-11 m
# Mask applied: user provided
# Dark current applied: False
# Flat field applied: False
# Polarization factor: 0.99
# Normalization factor: 1.0
# --> /home/myspot/data/2024_07_Rosario/Ru-CGO-ex/2024-07-27_003_Ru-CGO-ex_Reaction_dwell_000023_data_000011.dat
#       q_nm^-1             I
  2.003187e-02    0.000000e+00
  1.311609e-01    2.119879e-02
  2.422899e-01    2.027947e-02
  3.534189e-01    2.703678e-02
  4.645479e-01    4.052060e-02
  5.756770e-01    3.756592e-02
  6.868060e-01    6.427637e-02
  7.979350e-01    1.343651e-01
  9.090640e-01    6.254499e-01
  1.020193e+00    1.311845e+00
  1.131322e+00    1.620274e+00
  1.242451e+00    2.417812e+00
  1.353580e+00    2.679946e+00
  1.464709e+00    2.993037e+00
  1.575838e+00    3.292803e+00
  1.686967e+00    3.173758e+00
  1.798096e+00    3.062443e+00
  1.909225e+00    3.048996e+00
  2.020354e+00    3.052739e+00
  2.131483e+00    3.164255e+00
  2.242612e+00    3.207718e+00
  2.353741e+00    3.095654e+00
  2.464870e+00    3.158574e+00
  2.575999e+00    3.184762e+00
  2.687128e+00    3.188139e+00
  2.798257e+00    3.379063e+00
  2.909386e+00    3.337361e+00
  3.020515e+00    3.377392e+00
  3.131644e+00    3.334672e+00
  3.242773e+00    3.377869e+00
  3.353902e+00    3.533668e+00
  3.465031e+00    3.468803e+00
  3.576160e+00    3.370524e+00
  3.687289e+00    3.410594e+00
  3.798418e+00    3.598060e+00
  3.909547e+00    3.535891e+00
  4.020676e+00    3.546134e+00
  4.131806e+00    3.498147e+00
  4.242935e+00    3.633646e+00
  4.354064e+00    3.586436e+00
  4.465193e+00    3.581915e+00
  4.576322e+00    3.659070e+00
  4.687451e+00    3.647724e+00
  4.798580e+00    3.700836e+00
  4.909709e+00    3.686813e+00
  5.020838e+00    3.701467e+00
  5.131967e+00    3.706356e+00
  5.243096e+00    3.613525e+00
  5.354225e+00    3.669529e+00
  5.465354e+00    3.631571e+00
  5.576483e+00    3.566132e+00
  5.687612e+00    3.640587e+00
  5.798741e+00    3.609398e+00
  5.909870e+00    3.538127e+00
  6.020999e+00    3.543954e+00
  6.132128e+00    3.594468e+00
  6.243257e+00    3.604254e+00
  6.354386e+00    3.613932e+00
  6.465515e+00    3.610065e+00
  6.576644e+00    3.573805e+00
  6.687773e+00    3.600258e+00
  6.798902e+00    3.500664e+00
  6.910031e+00    3.457443e+00
  7.021160e+00    3.534775e+00
  7.132289e+00    3.615487e+00
  7.243418e+00    3.580010e+00
  7.354547e+00    3.538037e+00
  7.465676e+00    3.522570e+00
  7.576805e+00    3.507846e+00
  7.687934e+00    3.442171e+00
  7.799063e+00    3.384629e+00
  7.910192e+00    3.478628e+00
  8.021321e+00    3.425649e+00
  8.132450e+00    3.498864e+00
  8.243579e+00    3.447165e+00
  8.354708e+00    3.391134e+00
  8.465837e+00    3.316890e+00
  8.576966e+00    3.388216e+00
  8.688095e+00    3.350226e+00
  8.799224e+00    3.360024e+00
  8.910353e+00    3.293292e+00
  9.021482e+00    3.274494e+00
  9.132611e+00    3.246120e+00
  9.243740e+00    3.250500e+00
  9.354869e+00    3.269637e+00
  9.465998e+00    3.190351e+00
  9.577127e+00    3.244137e+00
  9.688256e+00    3.159916e+00
  9.799385e+00    3.204748e+00
  9.910514e+00    3.138975e+00
  1.002164e+01    3.105367e+00
  1.013277e+01    3.105871e+00
  1.024390e+01    3.094887e+00
  1.035503e+01    3.012110e+00
  1.046616e+01    2.999184e+00
  1.057729e+01    3.081786e+00
  1.068842e+01    2.978898e+00
  1.079955e+01    2.971174e+00
  1.091068e+01    2.943088e+00
  1.102180e+01    2.901501e+00
  1.113293e+01    2.868538e+00
  1.124406e+01    2.861675e+00
  1.135519e+01    2.869492e+00
  1.146632e+01    2.834411e+00
  1.157745e+01    2.789693e+00
  1.168858e+01    2.775626e+00
  1.179971e+01    2.733735e+00
  1.191084e+01    2.784236e+00
  1.202197e+01    2.630742e+00
  1.213309e+01    2.751796e+00
  1.224422e+01    2.707996e+00
  1.235535e+01    2.713706e+00
  1.246648e+01    2.638977e+00
  1.257761e+01    2.715337e+00
  1.268874e+01    2.837228e+00
  1.279987e+01    2.997732e+00
  1.291100e+01    3.658732e+00
  1.302213e+01    6.593363e+00
  1.313326e+01    1.472098e+01
  1.324438e+01    1.086682e+01
  1.335551e+01    4.471330e+00
  1.346664e+01    3.093732e+00
  1.357777e+01    2.742661e+00
  1.368890e+01    2.567565e+00
  1.380003e+01    2.494422e+00
  1.391116e+01    2.437716e+00
  1.402229e+01    2.379536e+00
  1.413342e+01    2.311462e+00
  1.424455e+01    2.295763e+00
  1.435568e+01    2.277240e+00
  1.446680e+01    2.307747e+00
  1.457793e+01    2.216895e+00
  1.468906e+01    2.237336e+00
  1.480019e+01    2.206554e+00
  1.491132e+01    2.285965e+00
  1.502245e+01    2.499404e+00
  1.513358e+01    3.799312e+00
  1.524471e+01    5.732245e+00
  1.535584e+01    3.815634e+00
  1.546697e+01    2.455296e+00
  1.557809e+01    2.098970e+00
  1.568922e+01    1.982332e+00
  1.580035e+01    1.967231e+00
  1.591148e+01    1.890129e+00
  1.602261e+01    1.856798e+00
  1.613374e+01    1.825617e+00
  1.624487e+01    1.811910e+00
  1.635600e+01    1.771124e+00
  1.646713e+01    1.779095e+00
  1.657826e+01    1.742952e+00
  1.668938e+01    1.739533e+00
  1.680051e+01    1.714752e+00
  1.691164e+01    1.725224e+00
  1.702277e+01    1.670409e+00
  1.713390e+01    1.640290e+00
  1.724503e+01    1.665252e+00
  1.735616e+01    1.610053e+00
  1.746729e+01    1.622845e+00
  1.757842e+01    1.567349e+00
  1.768955e+01    1.557937e+00
  1.780067e+01    1.564318e+00
  1.791180e+01    1.537351e+00
  1.802293e+01    1.539333e+00
  1.813406e+01    1.487215e+00
  1.824519e+01    1.481833e+00
  1.835632e+01    1.479184e+00
  1.846745e+01    1.468046e+00
  1.857858e+01    1.429731e+00
  1.868971e+01    1.437314e+00
  1.880084e+01    1.395437e+00
  1.891196e+01    1.396133e+00
  1.902309e+01    1.429687e+00
  1.913422e+01    1.390115e+00
  1.924535e+01    1.384544e+00
  1.935648e+01    1.360735e+00
  1.946761e+01    1.332337e+00
  1.957874e+01    1.371758e+00
  1.968987e+01    1.297537e+00
  1.980100e+01    1.297542e+00
  1.991213e+01    1.315060e+00
  2.002325e+01    1.276996e+00
  2.013438e+01    1.298603e+00
  2.024551e+01    1.243045e+00
  2.035664e+01    1.264852e+00
  2.046777e+01    1.244887e+00
  2.057890e+01    1.257075e+00
  2.069003e+01    1.230441e+00
  2.080116e+01    1.239551e+00
  2.091229e+01    1.229218e+00
  2.102342e+01    1.240565e+00
  2.113455e+01    1.232454e+00
  2.124567e+01    1.255981e+00
  2.135680e+01    1.288253e+00
  2.146793e+01    1.377654e+00
  2.157906e+01    1.606922e+00
  2.169019e+01    2.492887e+00
  2.180132e+01    5.834476e+00
  2.191245e+01    8.774715e+00
  2.202358e+01    3.614774e+00
  2.213471e+01    1.860386e+00
  2.224584e+01    1.441845e+00
  2.235696e+01    1.235951e+00
  2.246809e+01    1.154330e+00
  2.257922e+01    1.124718e+00
  2.269035e+01    1.096532e+00
  2.280148e+01    1.053359e+00
  2.291261e+01    1.016537e+00
  2.302374e+01    1.007930e+00
  2.313487e+01    1.006037e+00
  2.324600e+01    9.953705e-01
  2.335713e+01    9.680079e-01
  2.346825e+01    9.762300e-01
  2.357938e+01    9.354149e-01
  2.369051e+01    9.370557e-01
  2.380164e+01    9.230769e-01
  2.391277e+01    8.998814e-01
  2.402390e+01    9.045309e-01
  2.413503e+01    8.987678e-01
  2.424616e+01    8.989922e-01
  2.435729e+01    9.020567e-01
  2.446842e+01    8.895231e-01
  2.457954e+01    9.049346e-01
  2.469067e+01    8.890599e-01
  2.480180e+01    8.959522e-01
  2.491293e+01    8.942670e-01
  2.502406e+01    8.868278e-01
  2.513519e+01    8.921633e-01
  2.524632e+01    9.463159e-01
  2.535745e+01    9.857957e-01
  2.546858e+01    1.068030e+00
  2.557971e+01    1.136718e+00
  2.569083e+01    1.496052e+00
  2.580196e+01    2.785628e+00
  2.591309e+01    6.276315e+00
  2.602422e+01    5.378623e+00
  2.613535e+01    2.149108e+00
  2.624648e+01    1.355179e+00
  2.635761e+01    1.115498e+00
  2.646874e+01    1.026066e+00
  2.657987e+01    9.986069e-01
  2.669100e+01    9.686897e-01
  2.680212e+01    9.855089e-01
  2.691325e+01    1.008234e+00
  2.702438e+01    1.151215e+00
  2.713551e+01    1.707822e+00
  2.724664e+01    2.056633e+00
  2.735777e+01    1.320765e+00
  2.746890e+01    1.000239e+00
  2.758003e+01    9.476140e-01
  2.769116e+01    8.837512e-01
  2.780229e+01    8.760370e-01
  2.791342e+01    9.145914e-01
  2.802454e+01    8.795913e-01
  2.813567e+01    8.714857e-01
  2.824680e+01    8.466769e-01
  2.835793e+01    8.516573e-01
  2.846906e+01    8.478132e-01
  2.858019e+01    8.380818e-01
  2.869132e+01    8.116066e-01
  2.880245e+01    8.129598e-01
  2.891358e+01    8.332305e-01
  2.902471e+01    8.186132e-01
  2.913583e+01    7.971685e-01
  2.924696e+01    8.147693e-01
  2.935809e+01    8.260081e-01
  2.946922e+01    8.058882e-01
  2.958035e+01    8.040248e-01
  2.969148e+01    8.200767e-01
  2.980261e+01    8.089164e-01
  2.991374e+01    7.703241e-01
  3.002487e+01    8.263313e-01
  3.013600e+01    7.558922e-01
  3.024712e+01    7.905700e-01
  3.035825e+01    7.901235e-01
  3.046938e+01    7.940577e-01
  3.058051e+01    7.758211e-01
  3.069164e+01    8.026075e-01
  3.080277e+01    7.925810e-01
  3.091390e+01    7.896630e-01
  3.102503e+01    7.767210e-01
  3.113616e+01    7.823786e-01
  3.124729e+01    7.871397e-01
  3.135841e+01    8.204793e-01
  3.146954e+01    8.273533e-01
  3.158067e+01    8.846546e-01
  3.169180e+01    9.763594e-01
  3.180293e+01    1.454343e+00
  3.191406e+01    2.100672e+00
  3.202519e+01    1.333784e+00
  3.213632e+01    9.372220e-01
  3.224745e+01    8.233284e-01
  3.235858e+01    7.941087e-01
  3.246970e+01    7.823399e-01
  3.254908e+01    7.606825e-01