File: XRD/Reaction conditions/2024-07-27_003_Ru-CGO-ex_Reaction_dwell_000023_data_000174.dat
# == pyFAI calibration ==
# Distance Sample to Detector: 0.4 m
# PONI: 9.750e-02, 1.135e-01 m
# Rotations: -0.000175 0.000000 -0.000000 rad
#
# == Fit2d calibration ==
# Distance Sample-beamCenter: 400.000 mm
# Center: x=1514.000, y=1300.000 pix
# Tilt: 0.010 deg  TiltPlanRot: 0.010 deg
#
# Detector Detector	 Spline= None	 PixelSize= 7.500e-05, 7.500e-05 m
#    Detector has a mask: False
#    Detector has a dark current: False
#    detector has a flat field: False
#
# Wavelength: 6.888e-11 m
# Mask applied: user provided
# Dark current applied: False
# Flat field applied: False
# Polarization factor: 0.99
# Normalization factor: 1.0
# --> /home/myspot/data/2024_07_Rosario/Ru-CGO-ex/2024-07-27_003_Ru-CGO-ex_Reaction_dwell_000023_data_000174.dat
#       q_nm^-1             I
  2.003187e-02    7.712225e-02
  1.311609e-01    8.043215e-02
  2.422899e-01    4.941757e-02
  3.534189e-01    2.064798e-02
  4.645479e-01    5.327062e-02
  5.756770e-01    1.604928e-02
  6.868060e-01    4.780109e-02
  7.979350e-01    1.575265e-01
  9.090640e-01    5.125809e-01
  1.020193e+00    1.225032e+00
  1.131322e+00    1.734291e+00
  1.242451e+00    2.242948e+00
  1.353580e+00    2.720129e+00
  1.464709e+00    2.955798e+00
  1.575838e+00    3.218127e+00
  1.686967e+00    3.037085e+00
  1.798096e+00    3.108004e+00
  1.909225e+00    2.982180e+00
  2.020354e+00    3.007174e+00
  2.131483e+00    3.006726e+00
  2.242612e+00    3.002360e+00
  2.353741e+00    2.955755e+00
  2.464870e+00    3.170882e+00
  2.575999e+00    3.135768e+00
  2.687128e+00    3.092039e+00
  2.798257e+00    3.239754e+00
  2.909386e+00    3.272163e+00
  3.020515e+00    3.461676e+00
  3.131644e+00    3.383354e+00
  3.242773e+00    3.359940e+00
  3.353902e+00    3.343032e+00
  3.465031e+00    3.381356e+00
  3.576160e+00    3.383788e+00
  3.687289e+00    3.478277e+00
  3.798418e+00    3.498635e+00
  3.909547e+00    3.426213e+00
  4.020676e+00    3.531909e+00
  4.131806e+00    3.422782e+00
  4.242935e+00    3.404608e+00
  4.354064e+00    3.591736e+00
  4.465193e+00    3.523909e+00
  4.576322e+00    3.570382e+00
  4.687451e+00    3.468213e+00
  4.798580e+00    3.627251e+00
  4.909709e+00    3.574342e+00
  5.020838e+00    3.492585e+00
  5.131967e+00    3.566149e+00
  5.243096e+00    3.602676e+00
  5.354225e+00    3.572374e+00
  5.465354e+00    3.558072e+00
  5.576483e+00    3.498295e+00
  5.687612e+00    3.497663e+00
  5.798741e+00    3.618788e+00
  5.909870e+00    3.505798e+00
  6.020999e+00    3.421257e+00
  6.132128e+00    3.554852e+00
  6.243257e+00    3.550138e+00
  6.354386e+00    3.547090e+00
  6.465515e+00    3.468168e+00
  6.576644e+00    3.529574e+00
  6.687773e+00    3.433368e+00
  6.798902e+00    3.457597e+00
  6.910031e+00    3.525177e+00
  7.021160e+00    3.458348e+00
  7.132289e+00    3.458359e+00
  7.243418e+00    3.498873e+00
  7.354547e+00    3.358243e+00
  7.465676e+00    3.424471e+00
  7.576805e+00    3.444735e+00
  7.687934e+00    3.382576e+00
  7.799063e+00    3.396159e+00
  7.910192e+00    3.416608e+00
  8.021321e+00    3.402882e+00
  8.132450e+00    3.396738e+00
  8.243579e+00    3.383482e+00
  8.354708e+00    3.344937e+00
  8.465837e+00    3.378760e+00
  8.576966e+00    3.308599e+00
  8.688095e+00    3.299938e+00
  8.799224e+00    3.308082e+00
  8.910353e+00    3.280136e+00
  9.021482e+00    3.245019e+00
  9.132611e+00    3.243204e+00
  9.243740e+00    3.180843e+00
  9.354869e+00    3.239243e+00
  9.465998e+00    3.180089e+00
  9.577127e+00    3.105636e+00
  9.688256e+00    3.113530e+00
  9.799385e+00    3.123236e+00
  9.910514e+00    3.087684e+00
  1.002164e+01    3.039358e+00
  1.013277e+01    3.065183e+00
  1.024390e+01    2.995200e+00
  1.035503e+01    2.973100e+00
  1.046616e+01    2.944050e+00
  1.057729e+01    2.951313e+00
  1.068842e+01    2.954363e+00
  1.079955e+01    2.909442e+00
  1.091068e+01    2.824853e+00
  1.102180e+01    2.837809e+00
  1.113293e+01    2.795520e+00
  1.124406e+01    2.794543e+00
  1.135519e+01    2.808714e+00
  1.146632e+01    2.833631e+00
  1.157745e+01    2.736212e+00
  1.168858e+01    2.744452e+00
  1.179971e+01    2.714109e+00
  1.191084e+01    2.657018e+00
  1.202197e+01    2.681907e+00
  1.213309e+01    2.621430e+00
  1.224422e+01    2.641457e+00
  1.235535e+01    2.645465e+00
  1.246648e+01    2.618692e+00
  1.257761e+01    2.671361e+00
  1.268874e+01    2.777345e+00
  1.279987e+01    2.966934e+00
  1.291100e+01    3.576838e+00
  1.302213e+01    6.664633e+00
  1.313326e+01    1.471252e+01
  1.324438e+01    1.058576e+01
  1.335551e+01    4.478729e+00
  1.346664e+01    3.055134e+00
  1.357777e+01    2.720125e+00
  1.368890e+01    2.559729e+00
  1.380003e+01    2.430488e+00
  1.391116e+01    2.366811e+00
  1.402229e+01    2.330804e+00
  1.413342e+01    2.255288e+00
  1.424455e+01    2.271685e+00
  1.435568e+01    2.214703e+00
  1.446680e+01    2.223647e+00
  1.457793e+01    2.156522e+00
  1.468906e+01    2.178647e+00
  1.480019e+01    2.162463e+00
  1.491132e+01    2.227583e+00
  1.502245e+01    2.447147e+00
  1.513358e+01    3.777951e+00
  1.524471e+01    5.676219e+00
  1.535584e+01    3.727225e+00
  1.546697e+01    2.384366e+00
  1.557809e+01    2.055876e+00
  1.568922e+01    2.000517e+00
  1.580035e+01    1.963964e+00
  1.591148e+01    1.878647e+00
  1.602261e+01    1.858182e+00
  1.613374e+01    1.803912e+00
  1.624487e+01    1.782059e+00
  1.635600e+01    1.786539e+00
  1.646713e+01    1.746764e+00
  1.657826e+01    1.697440e+00
  1.668938e+01    1.733773e+00
  1.680051e+01    1.674453e+00
  1.691164e+01    1.692065e+00
  1.702277e+01    1.644998e+00
  1.713390e+01    1.644172e+00
  1.724503e+01    1.594919e+00
  1.735616e+01    1.544986e+00
  1.746729e+01    1.597674e+00
  1.757842e+01    1.569873e+00
  1.768955e+01    1.489885e+00
  1.780067e+01    1.522038e+00
  1.791180e+01    1.541880e+00
  1.802293e+01    1.501857e+00
  1.813406e+01    1.475452e+00
  1.824519e+01    1.474204e+00
  1.835632e+01    1.455517e+00
  1.846745e+01    1.433882e+00
  1.857858e+01    1.393352e+00
  1.868971e+01    1.394804e+00
  1.880084e+01    1.395122e+00
  1.891196e+01    1.389346e+00
  1.902309e+01    1.401001e+00
  1.913422e+01    1.369791e+00
  1.924535e+01    1.351862e+00
  1.935648e+01    1.357529e+00
  1.946761e+01    1.344133e+00
  1.957874e+01    1.303368e+00
  1.968987e+01    1.321916e+00
  1.980100e+01    1.274363e+00
  1.991213e+01    1.300696e+00
  2.002325e+01    1.246829e+00
  2.013438e+01    1.269903e+00
  2.024551e+01    1.238560e+00
  2.035664e+01    1.229996e+00
  2.046777e+01    1.212896e+00
  2.057890e+01    1.218249e+00
  2.069003e+01    1.209999e+00
  2.080116e+01    1.217594e+00
  2.091229e+01    1.219718e+00
  2.102342e+01    1.191462e+00
  2.113455e+01    1.203166e+00
  2.124567e+01    1.211413e+00
  2.135680e+01    1.242305e+00
  2.146793e+01    1.327655e+00
  2.157906e+01    1.602724e+00
  2.169019e+01    2.474513e+00
  2.180132e+01    5.838048e+00
  2.191245e+01    8.666589e+00
  2.202358e+01    3.596779e+00
  2.213471e+01    1.821339e+00
  2.224584e+01    1.395107e+00
  2.235696e+01    1.222243e+00
  2.246809e+01    1.140837e+00
  2.257922e+01    1.102370e+00
  2.269035e+01    1.089966e+00
  2.280148e+01    1.062834e+00
  2.291261e+01    1.016168e+00
  2.302374e+01    1.017129e+00
  2.313487e+01    9.564829e-01
  2.324600e+01    9.788936e-01
  2.335713e+01    9.612402e-01
  2.346825e+01    9.356648e-01
  2.357938e+01    9.434387e-01
  2.369051e+01    9.381220e-01
  2.380164e+01    8.924362e-01
  2.391277e+01    8.936188e-01
  2.402390e+01    8.944770e-01
  2.413503e+01    8.650134e-01
  2.424616e+01    8.708469e-01
  2.435729e+01    8.626218e-01
  2.446842e+01    8.726052e-01
  2.457954e+01    8.881296e-01
  2.469067e+01    8.861440e-01
  2.480180e+01    8.837995e-01
  2.491293e+01    8.730767e-01
  2.502406e+01    8.895034e-01
  2.513519e+01    8.908939e-01
  2.524632e+01    9.289522e-01
  2.535745e+01    9.604678e-01
  2.546858e+01    1.013727e+00
  2.557971e+01    1.141233e+00
  2.569083e+01    1.493510e+00
  2.580196e+01    2.783046e+00
  2.591309e+01    6.264046e+00
  2.602422e+01    5.250495e+00
  2.613535e+01    2.108388e+00
  2.624648e+01    1.332359e+00
  2.635761e+01    1.115958e+00
  2.646874e+01    1.011035e+00
  2.657987e+01    9.911289e-01
  2.669100e+01    9.515121e-01
  2.680212e+01    9.670517e-01
  2.691325e+01    9.916147e-01
  2.702438e+01    1.148739e+00
  2.713551e+01    1.739535e+00
  2.724664e+01    2.016797e+00
  2.735777e+01    1.254582e+00
  2.746890e+01    1.013350e+00
  2.758003e+01    9.256007e-01
  2.769116e+01    8.942332e-01
  2.780229e+01    8.763276e-01
  2.791342e+01    8.711757e-01
  2.802454e+01    8.647041e-01
  2.813567e+01    8.606166e-01
  2.824680e+01    8.409618e-01
  2.835793e+01    8.283126e-01
  2.846906e+01    8.465431e-01
  2.858019e+01    8.244668e-01
  2.869132e+01    8.032773e-01
  2.880245e+01    8.325254e-01
  2.891358e+01    8.245227e-01
  2.902471e+01    8.234406e-01
  2.913583e+01    8.209001e-01
  2.924696e+01    7.984016e-01
  2.935809e+01    7.910404e-01
  2.946922e+01    8.098081e-01
  2.958035e+01    8.037849e-01
  2.969148e+01    7.960867e-01
  2.980261e+01    7.867444e-01
  2.991374e+01    7.969999e-01
  3.002487e+01    7.986283e-01
  3.013600e+01    7.969818e-01
  3.024712e+01    7.571311e-01
  3.035825e+01    7.717702e-01
  3.046938e+01    7.732673e-01
  3.058051e+01    7.663877e-01
  3.069164e+01    7.712043e-01
  3.080277e+01    7.460509e-01
  3.091390e+01    7.683119e-01
  3.102503e+01    7.661840e-01
  3.113616e+01    8.024553e-01
  3.124729e+01    7.708467e-01
  3.135841e+01    7.853198e-01
  3.146954e+01    7.956018e-01
  3.158067e+01    8.548690e-01
  3.169180e+01    9.846779e-01
  3.180293e+01    1.433599e+00
  3.191406e+01    2.060770e+00
  3.202519e+01    1.313496e+00
  3.213632e+01    9.426150e-01
  3.224745e+01    8.461041e-01
  3.235858e+01    7.970037e-01
  3.246970e+01    7.789501e-01
  3.254908e+01    7.469034e-01