File: XRD/Reaction conditions/2024-07-27_003_Ru-CGO-ex_Reaction_dwell_000023_data_000095.dat
# == pyFAI calibration ==
# Distance Sample to Detector: 0.4 m
# PONI: 9.750e-02, 1.135e-01 m
# Rotations: -0.000175 0.000000 -0.000000 rad
#
# == Fit2d calibration ==
# Distance Sample-beamCenter: 400.000 mm
# Center: x=1514.000, y=1300.000 pix
# Tilt: 0.010 deg  TiltPlanRot: 0.010 deg
#
# Detector Detector	 Spline= None	 PixelSize= 7.500e-05, 7.500e-05 m
#    Detector has a mask: False
#    Detector has a dark current: False
#    detector has a flat field: False
#
# Wavelength: 6.888e-11 m
# Mask applied: user provided
# Dark current applied: False
# Flat field applied: False
# Polarization factor: 0.99
# Normalization factor: 1.0
# --> /home/myspot/data/2024_07_Rosario/Ru-CGO-ex/2024-07-27_003_Ru-CGO-ex_Reaction_dwell_000023_data_000095.dat
#       q_nm^-1             I
  2.003187e-02    2.226973e-02
  1.311609e-01    4.405557e-02
  2.422899e-01    3.184851e-02
  3.534189e-01    5.817780e-02
  4.645479e-01    6.224196e-02
  5.756770e-01    6.118777e-02
  6.868060e-01    3.487468e-02
  7.979350e-01    1.684296e-01
  9.090640e-01    6.839046e-01
  1.020193e+00    1.353005e+00
  1.131322e+00    1.657939e+00
  1.242451e+00    2.323954e+00
  1.353580e+00    2.701225e+00
  1.464709e+00    2.913265e+00
  1.575838e+00    3.071127e+00
  1.686967e+00    3.027549e+00
  1.798096e+00    3.005107e+00
  1.909225e+00    3.030588e+00
  2.020354e+00    3.039150e+00
  2.131483e+00    3.089034e+00
  2.242612e+00    3.174713e+00
  2.353741e+00    3.262728e+00
  2.464870e+00    3.173431e+00
  2.575999e+00    3.234074e+00
  2.687128e+00    3.238977e+00
  2.798257e+00    3.185577e+00
  2.909386e+00    3.223869e+00
  3.020515e+00    3.393656e+00
  3.131644e+00    3.270590e+00
  3.242773e+00    3.460172e+00
  3.353902e+00    3.298652e+00
  3.465031e+00    3.415732e+00
  3.576160e+00    3.533437e+00
  3.687289e+00    3.528160e+00
  3.798418e+00    3.509485e+00
  3.909547e+00    3.534051e+00
  4.020676e+00    3.555782e+00
  4.131806e+00    3.524867e+00
  4.242935e+00    3.585456e+00
  4.354064e+00    3.503953e+00
  4.465193e+00    3.508841e+00
  4.576322e+00    3.690497e+00
  4.687451e+00    3.635938e+00
  4.798580e+00    3.689753e+00
  4.909709e+00    3.601841e+00
  5.020838e+00    3.649411e+00
  5.131967e+00    3.675856e+00
  5.243096e+00    3.655771e+00
  5.354225e+00    3.674484e+00
  5.465354e+00    3.630775e+00
  5.576483e+00    3.609561e+00
  5.687612e+00    3.643847e+00
  5.798741e+00    3.619352e+00
  5.909870e+00    3.544778e+00
  6.020999e+00    3.613121e+00
  6.132128e+00    3.608325e+00
  6.243257e+00    3.562395e+00
  6.354386e+00    3.574334e+00
  6.465515e+00    3.590862e+00
  6.576644e+00    3.627074e+00
  6.687773e+00    3.528506e+00
  6.798902e+00    3.551609e+00
  6.910031e+00    3.550966e+00
  7.021160e+00    3.587876e+00
  7.132289e+00    3.497363e+00
  7.243418e+00    3.500977e+00
  7.354547e+00    3.487116e+00
  7.465676e+00    3.423251e+00
  7.576805e+00    3.545409e+00
  7.687934e+00    3.420373e+00
  7.799063e+00    3.468475e+00
  7.910192e+00    3.464349e+00
  8.021321e+00    3.388125e+00
  8.132450e+00    3.504118e+00
  8.243579e+00    3.457309e+00
  8.354708e+00    3.411667e+00
  8.465837e+00    3.376638e+00
  8.576966e+00    3.325277e+00
  8.688095e+00    3.350181e+00
  8.799224e+00    3.319167e+00
  8.910353e+00    3.325318e+00
  9.021482e+00    3.318266e+00
  9.132611e+00    3.266411e+00
  9.243740e+00    3.238518e+00
  9.354869e+00    3.183827e+00
  9.465998e+00    3.199807e+00
  9.577127e+00    3.159452e+00
  9.688256e+00    3.216972e+00
  9.799385e+00    3.146033e+00
  9.910514e+00    3.150563e+00
  1.002164e+01    3.073181e+00
  1.013277e+01    3.093872e+00
  1.024390e+01    3.043007e+00
  1.035503e+01    3.069515e+00
  1.046616e+01    2.977246e+00
  1.057729e+01    2.995158e+00
  1.068842e+01    2.941214e+00
  1.079955e+01    2.945034e+00
  1.091068e+01    2.873506e+00
  1.102180e+01    2.893730e+00
  1.113293e+01    2.879240e+00
  1.124406e+01    2.849058e+00
  1.135519e+01    2.849628e+00
  1.146632e+01    2.751813e+00
  1.157745e+01    2.792924e+00
  1.168858e+01    2.749491e+00
  1.179971e+01    2.720250e+00
  1.191084e+01    2.724552e+00
  1.202197e+01    2.708908e+00
  1.213309e+01    2.707828e+00
  1.224422e+01    2.711864e+00
  1.235535e+01    2.666719e+00
  1.246648e+01    2.685821e+00
  1.257761e+01    2.762226e+00
  1.268874e+01    2.830614e+00
  1.279987e+01    2.988219e+00
  1.291100e+01    3.593749e+00
  1.302213e+01    6.602854e+00
  1.313326e+01    1.472973e+01
  1.324438e+01    1.071677e+01
  1.335551e+01    4.420866e+00
  1.346664e+01    3.140458e+00
  1.357777e+01    2.721106e+00
  1.368890e+01    2.583516e+00
  1.380003e+01    2.469786e+00
  1.391116e+01    2.363337e+00
  1.402229e+01    2.414273e+00
  1.413342e+01    2.295512e+00
  1.424455e+01    2.278199e+00
  1.435568e+01    2.216188e+00
  1.446680e+01    2.252829e+00
  1.457793e+01    2.250177e+00
  1.468906e+01    2.197050e+00
  1.480019e+01    2.180879e+00
  1.491132e+01    2.223909e+00
  1.502245e+01    2.525047e+00
  1.513358e+01    3.834628e+00
  1.524471e+01    5.781930e+00
  1.535584e+01    3.760947e+00
  1.546697e+01    2.365726e+00
  1.557809e+01    2.131747e+00
  1.568922e+01    1.992637e+00
  1.580035e+01    1.905792e+00
  1.591148e+01    1.889151e+00
  1.602261e+01    1.904137e+00
  1.613374e+01    1.853644e+00
  1.624487e+01    1.820347e+00
  1.635600e+01    1.784183e+00
  1.646713e+01    1.748373e+00
  1.657826e+01    1.742616e+00
  1.668938e+01    1.692019e+00
  1.680051e+01    1.713203e+00
  1.691164e+01    1.666296e+00
  1.702277e+01    1.690270e+00
  1.713390e+01    1.613074e+00
  1.724503e+01    1.635474e+00
  1.735616e+01    1.612616e+00
  1.746729e+01    1.607536e+00
  1.757842e+01    1.531322e+00
  1.768955e+01    1.553893e+00
  1.780067e+01    1.539349e+00
  1.791180e+01    1.500888e+00
  1.802293e+01    1.503844e+00
  1.813406e+01    1.494038e+00
  1.824519e+01    1.485983e+00
  1.835632e+01    1.450055e+00
  1.846745e+01    1.454962e+00
  1.857858e+01    1.453003e+00
  1.868971e+01    1.441026e+00
  1.880084e+01    1.396877e+00
  1.891196e+01    1.396149e+00
  1.902309e+01    1.373658e+00
  1.913422e+01    1.373140e+00
  1.924535e+01    1.345989e+00
  1.935648e+01    1.313554e+00
  1.946761e+01    1.324415e+00
  1.957874e+01    1.330867e+00
  1.968987e+01    1.291672e+00
  1.980100e+01    1.309785e+00
  1.991213e+01    1.293423e+00
  2.002325e+01    1.277930e+00
  2.013438e+01    1.279883e+00
  2.024551e+01    1.271801e+00
  2.035664e+01    1.245306e+00
  2.046777e+01    1.241631e+00
  2.057890e+01    1.239836e+00
  2.069003e+01    1.214869e+00
  2.080116e+01    1.230773e+00
  2.091229e+01    1.204677e+00
  2.102342e+01    1.193002e+00
  2.113455e+01    1.233657e+00
  2.124567e+01    1.233891e+00
  2.135680e+01    1.282675e+00
  2.146793e+01    1.364237e+00
  2.157906e+01    1.608945e+00
  2.169019e+01    2.472415e+00
  2.180132e+01    5.756064e+00
  2.191245e+01    8.745203e+00
  2.202358e+01    3.606949e+00
  2.213471e+01    1.842713e+00
  2.224584e+01    1.427442e+00
  2.235696e+01    1.239760e+00
  2.246809e+01    1.171689e+00
  2.257922e+01    1.102158e+00
  2.269035e+01    1.089260e+00
  2.280148e+01    1.049877e+00
  2.291261e+01    1.063757e+00
  2.302374e+01    1.021286e+00
  2.313487e+01    1.004709e+00
  2.324600e+01    9.919118e-01
  2.335713e+01    9.725194e-01
  2.346825e+01    9.709351e-01
  2.357938e+01    9.574602e-01
  2.369051e+01    9.638914e-01
  2.380164e+01    9.254081e-01
  2.391277e+01    9.068812e-01
  2.402390e+01    8.961423e-01
  2.413503e+01    8.807189e-01
  2.424616e+01    8.815535e-01
  2.435729e+01    8.931800e-01
  2.446842e+01    8.930544e-01
  2.457954e+01    8.850662e-01
  2.469067e+01    8.846381e-01
  2.480180e+01    8.734571e-01
  2.491293e+01    8.726729e-01
  2.502406e+01    8.890596e-01
  2.513519e+01    8.964254e-01
  2.524632e+01    9.317814e-01
  2.535745e+01    9.599342e-01
  2.546858e+01    1.031866e+00
  2.557971e+01    1.153552e+00
  2.569083e+01    1.489659e+00
  2.580196e+01    2.774922e+00
  2.591309e+01    6.271553e+00
  2.602422e+01    5.340146e+00
  2.613535e+01    2.155174e+00
  2.624648e+01    1.363112e+00
  2.635761e+01    1.112842e+00
  2.646874e+01    1.011304e+00
  2.657987e+01    9.750662e-01
  2.669100e+01    9.665177e-01
  2.680212e+01    9.803114e-01
  2.691325e+01    1.014307e+00
  2.702438e+01    1.144730e+00
  2.713551e+01    1.698845e+00
  2.724664e+01    2.074596e+00
  2.735777e+01    1.279847e+00
  2.746890e+01    1.023394e+00
  2.758003e+01    9.442543e-01
  2.769116e+01    9.082510e-01
  2.780229e+01    8.924299e-01
  2.791342e+01    8.898906e-01
  2.802454e+01    8.563950e-01
  2.813567e+01    8.463830e-01
  2.824680e+01    8.275654e-01
  2.835793e+01    8.411391e-01
  2.846906e+01    8.279667e-01
  2.858019e+01    8.414506e-01
  2.869132e+01    8.377229e-01
  2.880245e+01    8.262585e-01
  2.891358e+01    8.030245e-01
  2.902471e+01    8.087333e-01
  2.913583e+01    8.118647e-01
  2.924696e+01    8.029438e-01
  2.935809e+01    7.778625e-01
  2.946922e+01    8.140524e-01
  2.958035e+01    8.073220e-01
  2.969148e+01    8.056238e-01
  2.980261e+01    7.876939e-01
  2.991374e+01    7.964408e-01
  3.002487e+01    8.396909e-01
  3.013600e+01    7.858110e-01
  3.024712e+01    7.840716e-01
  3.035825e+01    7.932390e-01
  3.046938e+01    7.683882e-01
  3.058051e+01    7.594428e-01
  3.069164e+01    7.498330e-01
  3.080277e+01    7.938375e-01
  3.091390e+01    7.671051e-01
  3.102503e+01    7.714685e-01
  3.113616e+01    7.815914e-01
  3.124729e+01    7.943813e-01
  3.135841e+01    8.360699e-01
  3.146954e+01    8.146885e-01
  3.158067e+01    8.533900e-01
  3.169180e+01    9.829723e-01
  3.180293e+01    1.425929e+00
  3.191406e+01    2.071522e+00
  3.202519e+01    1.304371e+00
  3.213632e+01    9.446228e-01
  3.224745e+01    8.358833e-01
  3.235858e+01    7.730039e-01
  3.246970e+01    7.814546e-01
  3.254908e+01    7.855651e-01