File: XRD/Reaction conditions/2024-07-27_003_Ru-CGO-ex_Reaction_dwell_000023_data_000075.dat
# == pyFAI calibration ==
# Distance Sample to Detector: 0.4 m
# PONI: 9.750e-02, 1.135e-01 m
# Rotations: -0.000175 0.000000 -0.000000 rad
#
# == Fit2d calibration ==
# Distance Sample-beamCenter: 400.000 mm
# Center: x=1514.000, y=1300.000 pix
# Tilt: 0.010 deg  TiltPlanRot: 0.010 deg
#
# Detector Detector	 Spline= None	 PixelSize= 7.500e-05, 7.500e-05 m
#    Detector has a mask: False
#    Detector has a dark current: False
#    detector has a flat field: False
#
# Wavelength: 6.888e-11 m
# Mask applied: user provided
# Dark current applied: False
# Flat field applied: False
# Polarization factor: 0.99
# Normalization factor: 1.0
# --> /home/myspot/data/2024_07_Rosario/Ru-CGO-ex/2024-07-27_003_Ru-CGO-ex_Reaction_dwell_000023_data_000075.dat
#       q_nm^-1             I
  2.003187e-02    0.000000e+00
  1.311609e-01    1.253478e-01
  2.422899e-01    4.995752e-02
  3.534189e-01    6.637231e-02
  4.645479e-01    2.823268e-02
  5.756770e-01    2.030923e-02
  6.868060e-01    2.778238e-02
  7.979350e-01    1.206360e-01
  9.090640e-01    6.915416e-01
  1.020193e+00    1.226511e+00
  1.131322e+00    1.688485e+00
  1.242451e+00    2.341948e+00
  1.353580e+00    2.828025e+00
  1.464709e+00    3.177803e+00
  1.575838e+00    3.198489e+00
  1.686967e+00    3.051394e+00
  1.798096e+00    3.039046e+00
  1.909225e+00    3.007488e+00
  2.020354e+00    3.095047e+00
  2.131483e+00    3.085382e+00
  2.242612e+00    3.206192e+00
  2.353741e+00    3.081434e+00
  2.464870e+00    3.161294e+00
  2.575999e+00    3.213054e+00
  2.687128e+00    3.123989e+00
  2.798257e+00    3.371188e+00
  2.909386e+00    3.328375e+00
  3.020515e+00    3.434021e+00
  3.131644e+00    3.432972e+00
  3.242773e+00    3.341729e+00
  3.353902e+00    3.422902e+00
  3.465031e+00    3.382879e+00
  3.576160e+00    3.396378e+00
  3.687289e+00    3.396073e+00
  3.798418e+00    3.414814e+00
  3.909547e+00    3.523698e+00
  4.020676e+00    3.565523e+00
  4.131806e+00    3.552654e+00
  4.242935e+00    3.646360e+00
  4.354064e+00    3.605445e+00
  4.465193e+00    3.599224e+00
  4.576322e+00    3.527955e+00
  4.687451e+00    3.615161e+00
  4.798580e+00    3.569502e+00
  4.909709e+00    3.709788e+00
  5.020838e+00    3.626758e+00
  5.131967e+00    3.644733e+00
  5.243096e+00    3.641824e+00
  5.354225e+00    3.755807e+00
  5.465354e+00    3.573574e+00
  5.576483e+00    3.643095e+00
  5.687612e+00    3.488109e+00
  5.798741e+00    3.611916e+00
  5.909870e+00    3.519003e+00
  6.020999e+00    3.537733e+00
  6.132128e+00    3.558591e+00
  6.243257e+00    3.536204e+00
  6.354386e+00    3.485746e+00
  6.465515e+00    3.550313e+00
  6.576644e+00    3.495985e+00
  6.687773e+00    3.545529e+00
  6.798902e+00    3.623965e+00
  6.910031e+00    3.591665e+00
  7.021160e+00    3.473259e+00
  7.132289e+00    3.544574e+00
  7.243418e+00    3.509736e+00
  7.354547e+00    3.463052e+00
  7.465676e+00    3.493663e+00
  7.576805e+00    3.445474e+00
  7.687934e+00    3.391628e+00
  7.799063e+00    3.446713e+00
  7.910192e+00    3.358291e+00
  8.021321e+00    3.382354e+00
  8.132450e+00    3.524047e+00
  8.243579e+00    3.454287e+00
  8.354708e+00    3.388498e+00
  8.465837e+00    3.335256e+00
  8.576966e+00    3.337250e+00
  8.688095e+00    3.345999e+00
  8.799224e+00    3.252917e+00
  8.910353e+00    3.272094e+00
  9.021482e+00    3.261030e+00
  9.132611e+00    3.255596e+00
  9.243740e+00    3.284671e+00
  9.354869e+00    3.198921e+00
  9.465998e+00    3.166257e+00
  9.577127e+00    3.224549e+00
  9.688256e+00    3.169421e+00
  9.799385e+00    3.237971e+00
  9.910514e+00    3.069007e+00
  1.002164e+01    3.101900e+00
  1.013277e+01    3.070363e+00
  1.024390e+01    3.061520e+00
  1.035503e+01    2.975022e+00
  1.046616e+01    3.018512e+00
  1.057729e+01    2.947080e+00
  1.068842e+01    3.008617e+00
  1.079955e+01    2.915969e+00
  1.091068e+01    2.893695e+00
  1.102180e+01    2.847038e+00
  1.113293e+01    2.883440e+00
  1.124406e+01    2.809080e+00
  1.135519e+01    2.846925e+00
  1.146632e+01    2.848397e+00
  1.157745e+01    2.801296e+00
  1.168858e+01    2.723190e+00
  1.179971e+01    2.762614e+00
  1.191084e+01    2.687855e+00
  1.202197e+01    2.708186e+00
  1.213309e+01    2.680982e+00
  1.224422e+01    2.682310e+00
  1.235535e+01    2.648119e+00
  1.246648e+01    2.671381e+00
  1.257761e+01    2.729009e+00
  1.268874e+01    2.766415e+00
  1.279987e+01    2.985871e+00
  1.291100e+01    3.690485e+00
  1.302213e+01    6.851554e+00
  1.313326e+01    1.504861e+01
  1.324438e+01    1.043135e+01
  1.335551e+01    4.405731e+00
  1.346664e+01    3.122103e+00
  1.357777e+01    2.736003e+00
  1.368890e+01    2.563819e+00
  1.380003e+01    2.478079e+00
  1.391116e+01    2.402050e+00
  1.402229e+01    2.385705e+00
  1.413342e+01    2.291221e+00
  1.424455e+01    2.325039e+00
  1.435568e+01    2.228790e+00
  1.446680e+01    2.242205e+00
  1.457793e+01    2.235527e+00
  1.468906e+01    2.209344e+00
  1.480019e+01    2.177478e+00
  1.491132e+01    2.243191e+00
  1.502245e+01    2.546675e+00
  1.513358e+01    3.841630e+00
  1.524471e+01    5.766762e+00
  1.535584e+01    3.728317e+00
  1.546697e+01    2.399435e+00
  1.557809e+01    2.120097e+00
  1.568922e+01    2.025901e+00
  1.580035e+01    1.929610e+00
  1.591148e+01    1.875642e+00
  1.602261e+01    1.889277e+00
  1.613374e+01    1.854768e+00
  1.624487e+01    1.825545e+00
  1.635600e+01    1.802863e+00
  1.646713e+01    1.752172e+00
  1.657826e+01    1.779663e+00
  1.668938e+01    1.724028e+00
  1.680051e+01    1.712282e+00
  1.691164e+01    1.671571e+00
  1.702277e+01    1.646063e+00
  1.713390e+01    1.616332e+00
  1.724503e+01    1.630095e+00
  1.735616e+01    1.620823e+00
  1.746729e+01    1.585526e+00
  1.757842e+01    1.567574e+00
  1.768955e+01    1.553776e+00
  1.780067e+01    1.500299e+00
  1.791180e+01    1.512738e+00
  1.802293e+01    1.522575e+00
  1.813406e+01    1.507050e+00
  1.824519e+01    1.461733e+00
  1.835632e+01    1.461292e+00
  1.846745e+01    1.469355e+00
  1.857858e+01    1.429896e+00
  1.868971e+01    1.406592e+00
  1.880084e+01    1.361292e+00
  1.891196e+01    1.379973e+00
  1.902309e+01    1.383719e+00
  1.913422e+01    1.342022e+00
  1.924535e+01    1.373238e+00
  1.935648e+01    1.360842e+00
  1.946761e+01    1.326833e+00
  1.957874e+01    1.303174e+00
  1.968987e+01    1.302405e+00
  1.980100e+01    1.299405e+00
  1.991213e+01    1.289773e+00
  2.002325e+01    1.291184e+00
  2.013438e+01    1.250066e+00
  2.024551e+01    1.268237e+00
  2.035664e+01    1.295258e+00
  2.046777e+01    1.229427e+00
  2.057890e+01    1.245563e+00
  2.069003e+01    1.230016e+00
  2.080116e+01    1.237357e+00
  2.091229e+01    1.245790e+00
  2.102342e+01    1.207984e+00
  2.113455e+01    1.205900e+00
  2.124567e+01    1.218872e+00
  2.135680e+01    1.274040e+00
  2.146793e+01    1.372535e+00
  2.157906e+01    1.654665e+00
  2.169019e+01    2.526209e+00
  2.180132e+01    5.979919e+00
  2.191245e+01    8.713475e+00
  2.202358e+01    3.535974e+00
  2.213471e+01    1.845457e+00
  2.224584e+01    1.407818e+00
  2.235696e+01    1.235248e+00
  2.246809e+01    1.158935e+00
  2.257922e+01    1.107208e+00
  2.269035e+01    1.066842e+00
  2.280148e+01    1.077086e+00
  2.291261e+01    1.051929e+00
  2.302374e+01    1.000758e+00
  2.313487e+01    9.934704e-01
  2.324600e+01    9.735977e-01
  2.335713e+01    9.849964e-01
  2.346825e+01    9.566824e-01
  2.357938e+01    9.704722e-01
  2.369051e+01    9.377253e-01
  2.380164e+01    9.325084e-01
  2.391277e+01    9.031705e-01
  2.402390e+01    8.742414e-01
  2.413503e+01    9.014605e-01
  2.424616e+01    8.760194e-01
  2.435729e+01    8.960993e-01
  2.446842e+01    8.963112e-01
  2.457954e+01    9.040195e-01
  2.469067e+01    8.807399e-01
  2.480180e+01    8.921346e-01
  2.491293e+01    8.949496e-01
  2.502406e+01    8.932282e-01
  2.513519e+01    8.998603e-01
  2.524632e+01    9.572225e-01
  2.535745e+01    9.498776e-01
  2.546858e+01    1.027646e+00
  2.557971e+01    1.180381e+00
  2.569083e+01    1.544694e+00
  2.580196e+01    2.873792e+00
  2.591309e+01    6.510981e+00
  2.602422e+01    5.118980e+00
  2.613535e+01    2.101652e+00
  2.624648e+01    1.344462e+00
  2.635761e+01    1.096748e+00
  2.646874e+01    1.010474e+00
  2.657987e+01    9.805026e-01
  2.669100e+01    9.820424e-01
  2.680212e+01    9.757529e-01
  2.691325e+01    1.012127e+00
  2.702438e+01    1.140096e+00
  2.713551e+01    1.780812e+00
  2.724664e+01    2.053944e+00
  2.735777e+01    1.264752e+00
  2.746890e+01    1.010402e+00
  2.758003e+01    9.565011e-01
  2.769116e+01    9.151326e-01
  2.780229e+01    8.900703e-01
  2.791342e+01    8.656930e-01
  2.802454e+01    8.679699e-01
  2.813567e+01    8.664590e-01
  2.824680e+01    8.474309e-01
  2.835793e+01    8.203147e-01
  2.846906e+01    8.208243e-01
  2.858019e+01    8.289119e-01
  2.869132e+01    8.228436e-01
  2.880245e+01    8.240496e-01
  2.891358e+01    8.320118e-01
  2.902471e+01    8.259497e-01
  2.913583e+01    8.263838e-01
  2.924696e+01    7.979389e-01
  2.935809e+01    8.104980e-01
  2.946922e+01    8.101897e-01
  2.958035e+01    7.972282e-01
  2.969148e+01    7.895064e-01
  2.980261e+01    7.952265e-01
  2.991374e+01    7.770442e-01
  3.002487e+01    7.894142e-01
  3.013600e+01    8.069966e-01
  3.024712e+01    7.500547e-01
  3.035825e+01    7.655042e-01
  3.046938e+01    8.125454e-01
  3.058051e+01    8.005863e-01
  3.069164e+01    7.614490e-01
  3.080277e+01    7.754136e-01
  3.091390e+01    7.781229e-01
  3.102503e+01    7.880885e-01
  3.113616e+01    7.804842e-01
  3.124729e+01    7.919666e-01
  3.135841e+01    8.085963e-01
  3.146954e+01    8.247907e-01
  3.158067e+01    8.765766e-01
  3.169180e+01    1.002320e+00
  3.180293e+01    1.473692e+00
  3.191406e+01    2.043832e+00
  3.202519e+01    1.287889e+00
  3.213632e+01    9.211993e-01
  3.224745e+01    8.279014e-01
  3.235858e+01    7.828017e-01
  3.246970e+01    7.660167e-01
  3.254908e+01    7.772897e-01