File: XRD/Reaction conditions/2024-07-27_003_Ru-CGO-ex_Reaction_dwell_000023_data_000130.dat
# == pyFAI calibration ==
# Distance Sample to Detector: 0.4 m
# PONI: 9.750e-02, 1.135e-01 m
# Rotations: -0.000175 0.000000 -0.000000 rad
#
# == Fit2d calibration ==
# Distance Sample-beamCenter: 400.000 mm
# Center: x=1514.000, y=1300.000 pix
# Tilt: 0.010 deg  TiltPlanRot: 0.010 deg
#
# Detector Detector	 Spline= None	 PixelSize= 7.500e-05, 7.500e-05 m
#    Detector has a mask: False
#    Detector has a dark current: False
#    detector has a flat field: False
#
# Wavelength: 6.888e-11 m
# Mask applied: user provided
# Dark current applied: False
# Flat field applied: False
# Polarization factor: 0.99
# Normalization factor: 1.0
# --> /home/myspot/data/2024_07_Rosario/Ru-CGO-ex/2024-07-27_003_Ru-CGO-ex_Reaction_dwell_000023_data_000130.dat
#       q_nm^-1             I
  2.003187e-02    0.000000e+00
  1.311609e-01    3.549683e-02
  2.422899e-01    2.936014e-02
  3.534189e-01    3.855338e-02
  4.645479e-01    1.557230e-02
  5.756770e-01    3.347207e-02
  6.868060e-01    1.764149e-02
  7.979350e-01    1.929902e-01
  9.090640e-01    6.040795e-01
  1.020193e+00    1.319666e+00
  1.131322e+00    1.622618e+00
  1.242451e+00    2.507713e+00
  1.353580e+00    2.586805e+00
  1.464709e+00    2.991472e+00
  1.575838e+00    3.045886e+00
  1.686967e+00    3.062258e+00
  1.798096e+00    3.136591e+00
  1.909225e+00    2.994593e+00
  2.020354e+00    3.054554e+00
  2.131483e+00    2.993788e+00
  2.242612e+00    3.026941e+00
  2.353741e+00    3.049689e+00
  2.464870e+00    3.244485e+00
  2.575999e+00    3.186048e+00
  2.687128e+00    3.240112e+00
  2.798257e+00    3.212272e+00
  2.909386e+00    3.348371e+00
  3.020515e+00    3.354964e+00
  3.131644e+00    3.350920e+00
  3.242773e+00    3.351594e+00
  3.353902e+00    3.402392e+00
  3.465031e+00    3.528117e+00
  3.576160e+00    3.437279e+00
  3.687289e+00    3.447244e+00
  3.798418e+00    3.446105e+00
  3.909547e+00    3.497505e+00
  4.020676e+00    3.570936e+00
  4.131806e+00    3.597623e+00
  4.242935e+00    3.552973e+00
  4.354064e+00    3.594883e+00
  4.465193e+00    3.557481e+00
  4.576322e+00    3.453534e+00
  4.687451e+00    3.646318e+00
  4.798580e+00    3.672935e+00
  4.909709e+00    3.574975e+00
  5.020838e+00    3.722306e+00
  5.131967e+00    3.664162e+00
  5.243096e+00    3.651752e+00
  5.354225e+00    3.579137e+00
  5.465354e+00    3.595183e+00
  5.576483e+00    3.615064e+00
  5.687612e+00    3.621684e+00
  5.798741e+00    3.537748e+00
  5.909870e+00    3.627398e+00
  6.020999e+00    3.548193e+00
  6.132128e+00    3.486215e+00
  6.243257e+00    3.527153e+00
  6.354386e+00    3.573270e+00
  6.465515e+00    3.521481e+00
  6.576644e+00    3.500431e+00
  6.687773e+00    3.504128e+00
  6.798902e+00    3.479254e+00
  6.910031e+00    3.515085e+00
  7.021160e+00    3.537263e+00
  7.132289e+00    3.468837e+00
  7.243418e+00    3.479954e+00
  7.354547e+00    3.551680e+00
  7.465676e+00    3.513267e+00
  7.576805e+00    3.490618e+00
  7.687934e+00    3.553491e+00
  7.799063e+00    3.439408e+00
  7.910192e+00    3.433696e+00
  8.021321e+00    3.418972e+00
  8.132450e+00    3.411258e+00
  8.243579e+00    3.525580e+00
  8.354708e+00    3.373066e+00
  8.465837e+00    3.404419e+00
  8.576966e+00    3.342236e+00
  8.688095e+00    3.393956e+00
  8.799224e+00    3.307282e+00
  8.910353e+00    3.281279e+00
  9.021482e+00    3.280038e+00
  9.132611e+00    3.382172e+00
  9.243740e+00    3.203444e+00
  9.354869e+00    3.190182e+00
  9.465998e+00    3.189360e+00
  9.577127e+00    3.170588e+00
  9.688256e+00    3.109975e+00
  9.799385e+00    3.163106e+00
  9.910514e+00    3.120565e+00
  1.002164e+01    3.066245e+00
  1.013277e+01    3.041032e+00
  1.024390e+01    3.084816e+00
  1.035503e+01    3.021435e+00
  1.046616e+01    3.041045e+00
  1.057729e+01    2.986232e+00
  1.068842e+01    2.969729e+00
  1.079955e+01    2.933129e+00
  1.091068e+01    2.944169e+00
  1.102180e+01    2.896051e+00
  1.113293e+01    2.873976e+00
  1.124406e+01    2.839737e+00
  1.135519e+01    2.819548e+00
  1.146632e+01    2.849228e+00
  1.157745e+01    2.745791e+00
  1.168858e+01    2.745532e+00
  1.179971e+01    2.744842e+00
  1.191084e+01    2.681224e+00
  1.202197e+01    2.632769e+00
  1.213309e+01    2.694487e+00
  1.224422e+01    2.676663e+00
  1.235535e+01    2.661276e+00
  1.246648e+01    2.740327e+00
  1.257761e+01    2.753274e+00
  1.268874e+01    2.789656e+00
  1.279987e+01    2.987638e+00
  1.291100e+01    3.656150e+00
  1.302213e+01    6.639429e+00
  1.313326e+01    1.465448e+01
  1.324438e+01    1.066145e+01
  1.335551e+01    4.389143e+00
  1.346664e+01    3.138995e+00
  1.357777e+01    2.705043e+00
  1.368890e+01    2.555450e+00
  1.380003e+01    2.497555e+00
  1.391116e+01    2.372988e+00
  1.402229e+01    2.333652e+00
  1.413342e+01    2.332757e+00
  1.424455e+01    2.312347e+00
  1.435568e+01    2.275537e+00
  1.446680e+01    2.231071e+00
  1.457793e+01    2.205712e+00
  1.468906e+01    2.196964e+00
  1.480019e+01    2.241266e+00
  1.491132e+01    2.249455e+00
  1.502245e+01    2.467962e+00
  1.513358e+01    3.797038e+00
  1.524471e+01    5.689349e+00
  1.535584e+01    3.765020e+00
  1.546697e+01    2.441163e+00
  1.557809e+01    2.114420e+00
  1.568922e+01    1.964158e+00
  1.580035e+01    1.933313e+00
  1.591148e+01    1.889702e+00
  1.602261e+01    1.866277e+00
  1.613374e+01    1.807919e+00
  1.624487e+01    1.794024e+00
  1.635600e+01    1.777624e+00
  1.646713e+01    1.758580e+00
  1.657826e+01    1.770827e+00
  1.668938e+01    1.742493e+00
  1.680051e+01    1.686971e+00
  1.691164e+01    1.652082e+00
  1.702277e+01    1.647877e+00
  1.713390e+01    1.653104e+00
  1.724503e+01    1.635072e+00
  1.735616e+01    1.629657e+00
  1.746729e+01    1.580453e+00
  1.757842e+01    1.562778e+00
  1.768955e+01    1.554586e+00
  1.780067e+01    1.537669e+00
  1.791180e+01    1.550844e+00
  1.802293e+01    1.516305e+00
  1.813406e+01    1.483082e+00
  1.824519e+01    1.460946e+00
  1.835632e+01    1.454767e+00
  1.846745e+01    1.451874e+00
  1.857858e+01    1.418730e+00
  1.868971e+01    1.421246e+00
  1.880084e+01    1.419951e+00
  1.891196e+01    1.410583e+00
  1.902309e+01    1.376656e+00
  1.913422e+01    1.392345e+00
  1.924535e+01    1.363632e+00
  1.935648e+01    1.359043e+00
  1.946761e+01    1.337760e+00
  1.957874e+01    1.335765e+00
  1.968987e+01    1.318643e+00
  1.980100e+01    1.271868e+00
  1.991213e+01    1.285912e+00
  2.002325e+01    1.263721e+00
  2.013438e+01    1.278396e+00
  2.024551e+01    1.263098e+00
  2.035664e+01    1.236727e+00
  2.046777e+01    1.242921e+00
  2.057890e+01    1.211145e+00
  2.069003e+01    1.207171e+00
  2.080116e+01    1.215508e+00
  2.091229e+01    1.235974e+00
  2.102342e+01    1.212131e+00
  2.113455e+01    1.240724e+00
  2.124567e+01    1.270380e+00
  2.135680e+01    1.293348e+00
  2.146793e+01    1.368134e+00
  2.157906e+01    1.609436e+00
  2.169019e+01    2.502739e+00
  2.180132e+01    5.726380e+00
  2.191245e+01    8.798503e+00
  2.202358e+01    3.596993e+00
  2.213471e+01    1.856554e+00
  2.224584e+01    1.401006e+00
  2.235696e+01    1.228455e+00
  2.246809e+01    1.163450e+00
  2.257922e+01    1.095109e+00
  2.269035e+01    1.078449e+00
  2.280148e+01    1.053475e+00
  2.291261e+01    1.026923e+00
  2.302374e+01    1.015351e+00
  2.313487e+01    1.007631e+00
  2.324600e+01    9.859024e-01
  2.335713e+01    9.624979e-01
  2.346825e+01    9.810471e-01
  2.357938e+01    9.589711e-01
  2.369051e+01    9.471709e-01
  2.380164e+01    9.301180e-01
  2.391277e+01    8.848564e-01
  2.402390e+01    8.971362e-01
  2.413503e+01    8.718593e-01
  2.424616e+01    8.778350e-01
  2.435729e+01    9.113202e-01
  2.446842e+01    8.846779e-01
  2.457954e+01    8.893203e-01
  2.469067e+01    9.028787e-01
  2.480180e+01    8.981699e-01
  2.491293e+01    9.003937e-01
  2.502406e+01    8.890914e-01
  2.513519e+01    9.045410e-01
  2.524632e+01    9.512634e-01
  2.535745e+01    9.669926e-01
  2.546858e+01    1.033822e+00
  2.557971e+01    1.178815e+00
  2.569083e+01    1.485442e+00
  2.580196e+01    2.776587e+00
  2.591309e+01    6.313695e+00
  2.602422e+01    5.300054e+00
  2.613535e+01    2.161927e+00
  2.624648e+01    1.340682e+00
  2.635761e+01    1.109443e+00
  2.646874e+01    1.012949e+00
  2.657987e+01    9.906108e-01
  2.669100e+01    9.860368e-01
  2.680212e+01    9.828458e-01
  2.691325e+01    1.002530e+00
  2.702438e+01    1.133417e+00
  2.713551e+01    1.707065e+00
  2.724664e+01    2.072471e+00
  2.735777e+01    1.286968e+00
  2.746890e+01    1.028971e+00
  2.758003e+01    9.199045e-01
  2.769116e+01    8.996978e-01
  2.780229e+01    8.846013e-01
  2.791342e+01    8.619518e-01
  2.802454e+01    8.595543e-01
  2.813567e+01    8.569030e-01
  2.824680e+01    8.434268e-01
  2.835793e+01    8.610588e-01
  2.846906e+01    8.562333e-01
  2.858019e+01    8.663793e-01
  2.869132e+01    8.323544e-01
  2.880245e+01    8.403261e-01
  2.891358e+01    8.024053e-01
  2.902471e+01    8.171822e-01
  2.913583e+01    7.815568e-01
  2.924696e+01    7.950746e-01
  2.935809e+01    8.082436e-01
  2.946922e+01    8.034711e-01
  2.958035e+01    7.770075e-01
  2.969148e+01    7.943156e-01
  2.980261e+01    7.848450e-01
  2.991374e+01    8.188026e-01
  3.002487e+01    8.165539e-01
  3.013600e+01    7.768008e-01
  3.024712e+01    7.929127e-01
  3.035825e+01    8.019497e-01
  3.046938e+01    7.895142e-01
  3.058051e+01    7.959983e-01
  3.069164e+01    7.657769e-01
  3.080277e+01    7.753605e-01
  3.091390e+01    7.702210e-01
  3.102503e+01    7.925318e-01
  3.113616e+01    7.710160e-01
  3.124729e+01    7.789111e-01
  3.135841e+01    8.131330e-01
  3.146954e+01    8.221560e-01
  3.158067e+01    8.470762e-01
  3.169180e+01    9.931447e-01
  3.180293e+01    1.438960e+00
  3.191406e+01    2.078396e+00
  3.202519e+01    1.285275e+00
  3.213632e+01    9.214089e-01
  3.224745e+01    8.186568e-01
  3.235858e+01    7.794958e-01
  3.246970e+01    7.776503e-01
  3.254908e+01    7.777965e-01