File: XRD/Reaction conditions/2024-07-27_003_Ru-CGO-ex_Reaction_dwell_000023_data_000188.dat
# == pyFAI calibration ==
# Distance Sample to Detector: 0.4 m
# PONI: 9.750e-02, 1.135e-01 m
# Rotations: -0.000175 0.000000 -0.000000 rad
#
# == Fit2d calibration ==
# Distance Sample-beamCenter: 400.000 mm
# Center: x=1514.000, y=1300.000 pix
# Tilt: 0.010 deg  TiltPlanRot: 0.010 deg
#
# Detector Detector	 Spline= None	 PixelSize= 7.500e-05, 7.500e-05 m
#    Detector has a mask: False
#    Detector has a dark current: False
#    detector has a flat field: False
#
# Wavelength: 6.888e-11 m
# Mask applied: user provided
# Dark current applied: False
# Flat field applied: False
# Polarization factor: 0.99
# Normalization factor: 1.0
# --> /home/myspot/data/2024_07_Rosario/Ru-CGO-ex/2024-07-27_003_Ru-CGO-ex_Reaction_dwell_000023_data_000188.dat
#       q_nm^-1             I
  2.003187e-02    0.000000e+00
  1.311609e-01    8.934905e-02
  2.422899e-01    2.884522e-02
  3.534189e-01    4.975943e-02
  4.645479e-01    6.060113e-02
  5.756770e-01    4.832909e-02
  6.868060e-01    2.373431e-02
  7.979350e-01    1.809011e-01
  9.090640e-01    5.865455e-01
  1.020193e+00    1.290240e+00
  1.131322e+00    1.625428e+00
  1.242451e+00    2.223973e+00
  1.353580e+00    2.828885e+00
  1.464709e+00    3.096831e+00
  1.575838e+00    3.180000e+00
  1.686967e+00    2.960099e+00
  1.798096e+00    2.956091e+00
  1.909225e+00    3.156476e+00
  2.020354e+00    3.034460e+00
  2.131483e+00    3.095708e+00
  2.242612e+00    3.031657e+00
  2.353741e+00    3.114891e+00
  2.464870e+00    3.116507e+00
  2.575999e+00    3.224699e+00
  2.687128e+00    3.141839e+00
  2.798257e+00    3.194750e+00
  2.909386e+00    3.343704e+00
  3.020515e+00    3.175404e+00
  3.131644e+00    3.328664e+00
  3.242773e+00    3.328065e+00
  3.353902e+00    3.351999e+00
  3.465031e+00    3.286483e+00
  3.576160e+00    3.472797e+00
  3.687289e+00    3.473597e+00
  3.798418e+00    3.494459e+00
  3.909547e+00    3.345867e+00
  4.020676e+00    3.505743e+00
  4.131806e+00    3.544799e+00
  4.242935e+00    3.464461e+00
  4.354064e+00    3.438313e+00
  4.465193e+00    3.491251e+00
  4.576322e+00    3.530975e+00
  4.687451e+00    3.510466e+00
  4.798580e+00    3.534772e+00
  4.909709e+00    3.550222e+00
  5.020838e+00    3.516548e+00
  5.131967e+00    3.582409e+00
  5.243096e+00    3.565977e+00
  5.354225e+00    3.588191e+00
  5.465354e+00    3.566313e+00
  5.576483e+00    3.531706e+00
  5.687612e+00    3.618127e+00
  5.798741e+00    3.542061e+00
  5.909870e+00    3.465169e+00
  6.020999e+00    3.459957e+00
  6.132128e+00    3.615592e+00
  6.243257e+00    3.498470e+00
  6.354386e+00    3.399901e+00
  6.465515e+00    3.442717e+00
  6.576644e+00    3.521915e+00
  6.687773e+00    3.539191e+00
  6.798902e+00    3.488889e+00
  6.910031e+00    3.439549e+00
  7.021160e+00    3.507564e+00
  7.132289e+00    3.461679e+00
  7.243418e+00    3.376244e+00
  7.354547e+00    3.419863e+00
  7.465676e+00    3.437062e+00
  7.576805e+00    3.430683e+00
  7.687934e+00    3.376355e+00
  7.799063e+00    3.394601e+00
  7.910192e+00    3.380024e+00
  8.021321e+00    3.359779e+00
  8.132450e+00    3.373902e+00
  8.243579e+00    3.390412e+00
  8.354708e+00    3.299901e+00
  8.465837e+00    3.366425e+00
  8.576966e+00    3.309898e+00
  8.688095e+00    3.316116e+00
  8.799224e+00    3.256617e+00
  8.910353e+00    3.198152e+00
  9.021482e+00    3.225645e+00
  9.132611e+00    3.227271e+00
  9.243740e+00    3.203340e+00
  9.354869e+00    3.217157e+00
  9.465998e+00    3.176429e+00
  9.577127e+00    3.117112e+00
  9.688256e+00    3.167572e+00
  9.799385e+00    3.133326e+00
  9.910514e+00    3.010965e+00
  1.002164e+01    3.042382e+00
  1.013277e+01    3.022302e+00
  1.024390e+01    3.014096e+00
  1.035503e+01    3.008067e+00
  1.046616e+01    2.976892e+00
  1.057729e+01    2.985548e+00
  1.068842e+01    2.938337e+00
  1.079955e+01    2.913762e+00
  1.091068e+01    2.886208e+00
  1.102180e+01    2.857109e+00
  1.113293e+01    2.763899e+00
  1.124406e+01    2.820443e+00
  1.135519e+01    2.787543e+00
  1.146632e+01    2.736927e+00
  1.157745e+01    2.753637e+00
  1.168858e+01    2.716684e+00
  1.179971e+01    2.718008e+00
  1.191084e+01    2.705769e+00
  1.202197e+01    2.670359e+00
  1.213309e+01    2.654782e+00
  1.224422e+01    2.631805e+00
  1.235535e+01    2.630035e+00
  1.246648e+01    2.678393e+00
  1.257761e+01    2.696260e+00
  1.268874e+01    2.774149e+00
  1.279987e+01    2.968475e+00
  1.291100e+01    3.624983e+00
  1.302213e+01    6.622036e+00
  1.313326e+01    1.458621e+01
  1.324438e+01    1.051090e+01
  1.335551e+01    4.329518e+00
  1.346664e+01    3.094825e+00
  1.357777e+01    2.680755e+00
  1.368890e+01    2.547205e+00
  1.380003e+01    2.428459e+00
  1.391116e+01    2.381257e+00
  1.402229e+01    2.380815e+00
  1.413342e+01    2.260283e+00
  1.424455e+01    2.259293e+00
  1.435568e+01    2.205763e+00
  1.446680e+01    2.171754e+00
  1.457793e+01    2.186639e+00
  1.468906e+01    2.171495e+00
  1.480019e+01    2.190585e+00
  1.491132e+01    2.244827e+00
  1.502245e+01    2.490118e+00
  1.513358e+01    3.766626e+00
  1.524471e+01    5.585651e+00
  1.535584e+01    3.657088e+00
  1.546697e+01    2.378248e+00
  1.557809e+01    2.114600e+00
  1.568922e+01    1.992427e+00
  1.580035e+01    1.895331e+00
  1.591148e+01    1.868626e+00
  1.602261e+01    1.885001e+00
  1.613374e+01    1.827275e+00
  1.624487e+01    1.784681e+00
  1.635600e+01    1.761551e+00
  1.646713e+01    1.721786e+00
  1.657826e+01    1.754739e+00
  1.668938e+01    1.699356e+00
  1.680051e+01    1.712976e+00
  1.691164e+01    1.623469e+00
  1.702277e+01    1.649599e+00
  1.713390e+01    1.587087e+00
  1.724503e+01    1.588831e+00
  1.735616e+01    1.593820e+00
  1.746729e+01    1.584476e+00
  1.757842e+01    1.553155e+00
  1.768955e+01    1.512277e+00
  1.780067e+01    1.483405e+00
  1.791180e+01    1.484476e+00
  1.802293e+01    1.523583e+00
  1.813406e+01    1.494277e+00
  1.824519e+01    1.448837e+00
  1.835632e+01    1.431811e+00
  1.846745e+01    1.428445e+00
  1.857858e+01    1.425301e+00
  1.868971e+01    1.400394e+00
  1.880084e+01    1.391127e+00
  1.891196e+01    1.403563e+00
  1.902309e+01    1.340352e+00
  1.913422e+01    1.348409e+00
  1.924535e+01    1.328019e+00
  1.935648e+01    1.324668e+00
  1.946761e+01    1.333224e+00
  1.957874e+01    1.308920e+00
  1.968987e+01    1.283775e+00
  1.980100e+01    1.290800e+00
  1.991213e+01    1.241327e+00
  2.002325e+01    1.248403e+00
  2.013438e+01    1.244507e+00
  2.024551e+01    1.223706e+00
  2.035664e+01    1.234900e+00
  2.046777e+01    1.220757e+00
  2.057890e+01    1.243513e+00
  2.069003e+01    1.215628e+00
  2.080116e+01    1.209193e+00
  2.091229e+01    1.220288e+00
  2.102342e+01    1.197959e+00
  2.113455e+01    1.202698e+00
  2.124567e+01    1.212947e+00
  2.135680e+01    1.237283e+00
  2.146793e+01    1.347616e+00
  2.157906e+01    1.615880e+00
  2.169019e+01    2.459943e+00
  2.180132e+01    5.764875e+00
  2.191245e+01    8.484667e+00
  2.202358e+01    3.500175e+00
  2.213471e+01    1.818582e+00
  2.224584e+01    1.375910e+00
  2.235696e+01    1.198094e+00
  2.246809e+01    1.156384e+00
  2.257922e+01    1.111976e+00
  2.269035e+01    1.059413e+00
  2.280148e+01    1.038303e+00
  2.291261e+01    1.015820e+00
  2.302374e+01    9.856738e-01
  2.313487e+01    9.607936e-01
  2.324600e+01    9.497774e-01
  2.335713e+01    9.692457e-01
  2.346825e+01    9.632221e-01
  2.357938e+01    9.344450e-01
  2.369051e+01    9.008531e-01
  2.380164e+01    8.926378e-01
  2.391277e+01    8.826516e-01
  2.402390e+01    8.948802e-01
  2.413503e+01    8.562340e-01
  2.424616e+01    8.553119e-01
  2.435729e+01    8.864548e-01
  2.446842e+01    8.736297e-01
  2.457954e+01    8.564496e-01
  2.469067e+01    8.784278e-01
  2.480180e+01    8.807294e-01
  2.491293e+01    8.642793e-01
  2.502406e+01    8.582711e-01
  2.513519e+01    8.846634e-01
  2.524632e+01    8.987027e-01
  2.535745e+01    9.793587e-01
  2.546858e+01    1.037503e+00
  2.557971e+01    1.118705e+00
  2.569083e+01    1.498884e+00
  2.580196e+01    2.805233e+00
  2.591309e+01    6.238858e+00
  2.602422e+01    5.082699e+00
  2.613535e+01    2.055583e+00
  2.624648e+01    1.343416e+00
  2.635761e+01    1.081718e+00
  2.646874e+01    1.009028e+00
  2.657987e+01    9.692910e-01
  2.669100e+01    9.346215e-01
  2.680212e+01    9.587613e-01
  2.691325e+01    9.922245e-01
  2.702438e+01    1.144778e+00
  2.713551e+01    1.688080e+00
  2.724664e+01    2.016907e+00
  2.735777e+01    1.278564e+00
  2.746890e+01    9.836329e-01
  2.758003e+01    9.241607e-01
  2.769116e+01    9.095750e-01
  2.780229e+01    8.775756e-01
  2.791342e+01    8.547805e-01
  2.802454e+01    8.641614e-01
  2.813567e+01    8.707396e-01
  2.824680e+01    8.580236e-01
  2.835793e+01    8.305752e-01
  2.846906e+01    8.425249e-01
  2.858019e+01    8.164906e-01
  2.869132e+01    8.148140e-01
  2.880245e+01    8.145113e-01
  2.891358e+01    8.287994e-01
  2.902471e+01    8.086832e-01
  2.913583e+01    7.960377e-01
  2.924696e+01    7.943494e-01
  2.935809e+01    7.874323e-01
  2.946922e+01    7.908657e-01
  2.958035e+01    7.883132e-01
  2.969148e+01    7.907279e-01
  2.980261e+01    7.916433e-01
  2.991374e+01    7.770464e-01
  3.002487e+01    7.839921e-01
  3.013600e+01    7.828018e-01
  3.024712e+01    8.070544e-01
  3.035825e+01    7.774623e-01
  3.046938e+01    7.961563e-01
  3.058051e+01    7.896482e-01
  3.069164e+01    7.883041e-01
  3.080277e+01    7.581809e-01
  3.091390e+01    7.729244e-01
  3.102503e+01    7.527742e-01
  3.113616e+01    7.804399e-01
  3.124729e+01    7.731078e-01
  3.135841e+01    7.909650e-01
  3.146954e+01    8.155426e-01
  3.158067e+01    8.454782e-01
  3.169180e+01    9.854805e-01
  3.180293e+01    1.429713e+00
  3.191406e+01    2.032484e+00
  3.202519e+01    1.292418e+00
  3.213632e+01    9.257787e-01
  3.224745e+01    8.313558e-01
  3.235858e+01    7.784198e-01
  3.246970e+01    7.594346e-01
  3.254908e+01    7.661729e-01