File: XRD/Reaction conditions/2024-07-27_003_Ru-CGO-ex_Reaction_dwell_000023_data_000136.dat
# == pyFAI calibration ==
# Distance Sample to Detector: 0.4 m
# PONI: 9.750e-02, 1.135e-01 m
# Rotations: -0.000175 0.000000 -0.000000 rad
#
# == Fit2d calibration ==
# Distance Sample-beamCenter: 400.000 mm
# Center: x=1514.000, y=1300.000 pix
# Tilt: 0.010 deg  TiltPlanRot: 0.010 deg
#
# Detector Detector	 Spline= None	 PixelSize= 7.500e-05, 7.500e-05 m
#    Detector has a mask: False
#    Detector has a dark current: False
#    detector has a flat field: False
#
# Wavelength: 6.888e-11 m
# Mask applied: user provided
# Dark current applied: False
# Flat field applied: False
# Polarization factor: 0.99
# Normalization factor: 1.0
# --> /home/myspot/data/2024_07_Rosario/Ru-CGO-ex/2024-07-27_003_Ru-CGO-ex_Reaction_dwell_000023_data_000136.dat
#       q_nm^-1             I
  2.003187e-02    1.424646e-01
  1.311609e-01    7.103863e-02
  2.422899e-01    1.117430e-02
  3.534189e-01    2.908122e-02
  4.645479e-01    3.060217e-02
  5.756770e-01    3.900434e-02
  6.868060e-01    5.128345e-02
  7.979350e-01    1.410064e-01
  9.090640e-01    5.603951e-01
  1.020193e+00    1.304884e+00
  1.131322e+00    1.579922e+00
  1.242451e+00    2.370256e+00
  1.353580e+00    2.879995e+00
  1.464709e+00    2.993010e+00
  1.575838e+00    3.176995e+00
  1.686967e+00    3.141188e+00
  1.798096e+00    3.066455e+00
  1.909225e+00    3.172365e+00
  2.020354e+00    3.115682e+00
  2.131483e+00    3.091873e+00
  2.242612e+00    3.081813e+00
  2.353741e+00    3.153934e+00
  2.464870e+00    3.221077e+00
  2.575999e+00    3.219373e+00
  2.687128e+00    3.263026e+00
  2.798257e+00    3.198286e+00
  2.909386e+00    3.260835e+00
  3.020515e+00    3.375551e+00
  3.131644e+00    3.373993e+00
  3.242773e+00    3.445096e+00
  3.353902e+00    3.356294e+00
  3.465031e+00    3.462871e+00
  3.576160e+00    3.394698e+00
  3.687289e+00    3.353258e+00
  3.798418e+00    3.434706e+00
  3.909547e+00    3.491624e+00
  4.020676e+00    3.456767e+00
  4.131806e+00    3.554490e+00
  4.242935e+00    3.462689e+00
  4.354064e+00    3.532296e+00
  4.465193e+00    3.576996e+00
  4.576322e+00    3.534082e+00
  4.687451e+00    3.632136e+00
  4.798580e+00    3.655012e+00
  4.909709e+00    3.628286e+00
  5.020838e+00    3.667126e+00
  5.131967e+00    3.650360e+00
  5.243096e+00    3.629562e+00
  5.354225e+00    3.676081e+00
  5.465354e+00    3.668008e+00
  5.576483e+00    3.603652e+00
  5.687612e+00    3.690585e+00
  5.798741e+00    3.580526e+00
  5.909870e+00    3.505949e+00
  6.020999e+00    3.610345e+00
  6.132128e+00    3.649598e+00
  6.243257e+00    3.685248e+00
  6.354386e+00    3.608428e+00
  6.465515e+00    3.487789e+00
  6.576644e+00    3.600245e+00
  6.687773e+00    3.438614e+00
  6.798902e+00    3.509576e+00
  6.910031e+00    3.555750e+00
  7.021160e+00    3.548354e+00
  7.132289e+00    3.455728e+00
  7.243418e+00    3.548339e+00
  7.354547e+00    3.497576e+00
  7.465676e+00    3.472034e+00
  7.576805e+00    3.436227e+00
  7.687934e+00    3.434003e+00
  7.799063e+00    3.491567e+00
  7.910192e+00    3.548127e+00
  8.021321e+00    3.474225e+00
  8.132450e+00    3.422936e+00
  8.243579e+00    3.485937e+00
  8.354708e+00    3.414298e+00
  8.465837e+00    3.356862e+00
  8.576966e+00    3.392769e+00
  8.688095e+00    3.327406e+00
  8.799224e+00    3.354066e+00
  8.910353e+00    3.297763e+00
  9.021482e+00    3.234945e+00
  9.132611e+00    3.338321e+00
  9.243740e+00    3.279312e+00
  9.354869e+00    3.295536e+00
  9.465998e+00    3.240904e+00
  9.577127e+00    3.227632e+00
  9.688256e+00    3.180459e+00
  9.799385e+00    3.139470e+00
  9.910514e+00    3.152068e+00
  1.002164e+01    3.074609e+00
  1.013277e+01    3.108254e+00
  1.024390e+01    3.111646e+00
  1.035503e+01    3.021401e+00
  1.046616e+01    3.079096e+00
  1.057729e+01    2.977821e+00
  1.068842e+01    2.970911e+00
  1.079955e+01    2.968423e+00
  1.091068e+01    2.982352e+00
  1.102180e+01    2.891107e+00
  1.113293e+01    2.846214e+00
  1.124406e+01    2.802271e+00
  1.135519e+01    2.842260e+00
  1.146632e+01    2.765384e+00
  1.157745e+01    2.807125e+00
  1.168858e+01    2.747926e+00
  1.179971e+01    2.716016e+00
  1.191084e+01    2.728739e+00
  1.202197e+01    2.705563e+00
  1.213309e+01    2.701178e+00
  1.224422e+01    2.651332e+00
  1.235535e+01    2.665019e+00
  1.246648e+01    2.724060e+00
  1.257761e+01    2.751010e+00
  1.268874e+01    2.832511e+00
  1.279987e+01    2.965943e+00
  1.291100e+01    3.633641e+00
  1.302213e+01    6.715616e+00
  1.313326e+01    1.483415e+01
  1.324438e+01    1.074400e+01
  1.335551e+01    4.514631e+00
  1.346664e+01    3.168350e+00
  1.357777e+01    2.764918e+00
  1.368890e+01    2.533179e+00
  1.380003e+01    2.481901e+00
  1.391116e+01    2.455215e+00
  1.402229e+01    2.358389e+00
  1.413342e+01    2.273537e+00
  1.424455e+01    2.267534e+00
  1.435568e+01    2.257321e+00
  1.446680e+01    2.229455e+00
  1.457793e+01    2.213843e+00
  1.468906e+01    2.220106e+00
  1.480019e+01    2.218443e+00
  1.491132e+01    2.270469e+00
  1.502245e+01    2.516210e+00
  1.513358e+01    3.771297e+00
  1.524471e+01    5.698857e+00
  1.535584e+01    3.763612e+00
  1.546697e+01    2.412443e+00
  1.557809e+01    2.141843e+00
  1.568922e+01    2.035823e+00
  1.580035e+01    1.925225e+00
  1.591148e+01    1.888843e+00
  1.602261e+01    1.911224e+00
  1.613374e+01    1.851688e+00
  1.624487e+01    1.832919e+00
  1.635600e+01    1.774880e+00
  1.646713e+01    1.735712e+00
  1.657826e+01    1.764246e+00
  1.668938e+01    1.717287e+00
  1.680051e+01    1.698787e+00
  1.691164e+01    1.686912e+00
  1.702277e+01    1.699030e+00
  1.713390e+01    1.644492e+00
  1.724503e+01    1.586953e+00
  1.735616e+01    1.602113e+00
  1.746729e+01    1.596981e+00
  1.757842e+01    1.573243e+00
  1.768955e+01    1.581564e+00
  1.780067e+01    1.560167e+00
  1.791180e+01    1.541162e+00
  1.802293e+01    1.496520e+00
  1.813406e+01    1.504617e+00
  1.824519e+01    1.466199e+00
  1.835632e+01    1.470520e+00
  1.846745e+01    1.441965e+00
  1.857858e+01    1.434289e+00
  1.868971e+01    1.407463e+00
  1.880084e+01    1.405349e+00
  1.891196e+01    1.398255e+00
  1.902309e+01    1.380670e+00
  1.913422e+01    1.392651e+00
  1.924535e+01    1.374577e+00
  1.935648e+01    1.372861e+00
  1.946761e+01    1.332049e+00
  1.957874e+01    1.329811e+00
  1.968987e+01    1.308418e+00
  1.980100e+01    1.300144e+00
  1.991213e+01    1.291788e+00
  2.002325e+01    1.268283e+00
  2.013438e+01    1.271875e+00
  2.024551e+01    1.280060e+00
  2.035664e+01    1.271260e+00
  2.046777e+01    1.243360e+00
  2.057890e+01    1.226395e+00
  2.069003e+01    1.250977e+00
  2.080116e+01    1.248937e+00
  2.091229e+01    1.245365e+00
  2.102342e+01    1.238516e+00
  2.113455e+01    1.219957e+00
  2.124567e+01    1.236264e+00
  2.135680e+01    1.287105e+00
  2.146793e+01    1.372675e+00
  2.157906e+01    1.598993e+00
  2.169019e+01    2.488422e+00
  2.180132e+01    5.820560e+00
  2.191245e+01    8.716698e+00
  2.202358e+01    3.628431e+00
  2.213471e+01    1.873772e+00
  2.224584e+01    1.429668e+00
  2.235696e+01    1.243448e+00
  2.246809e+01    1.161362e+00
  2.257922e+01    1.114671e+00
  2.269035e+01    1.090504e+00
  2.280148e+01    1.046332e+00
  2.291261e+01    1.015241e+00
  2.302374e+01    1.047444e+00
  2.313487e+01    1.009785e+00
  2.324600e+01    1.008535e+00
  2.335713e+01    9.754639e-01
  2.346825e+01    9.519743e-01
  2.357938e+01    9.580780e-01
  2.369051e+01    9.458743e-01
  2.380164e+01    9.278264e-01
  2.391277e+01    9.099272e-01
  2.402390e+01    8.832406e-01
  2.413503e+01    8.868222e-01
  2.424616e+01    8.829219e-01
  2.435729e+01    8.927443e-01
  2.446842e+01    8.835301e-01
  2.457954e+01    8.784657e-01
  2.469067e+01    8.856210e-01
  2.480180e+01    8.908950e-01
  2.491293e+01    8.800077e-01
  2.502406e+01    9.060454e-01
  2.513519e+01    9.058942e-01
  2.524632e+01    9.400311e-01
  2.535745e+01    9.741156e-01
  2.546858e+01    1.014310e+00
  2.557971e+01    1.173378e+00
  2.569083e+01    1.495228e+00
  2.580196e+01    2.821469e+00
  2.591309e+01    6.307973e+00
  2.602422e+01    5.279438e+00
  2.613535e+01    2.099874e+00
  2.624648e+01    1.332166e+00
  2.635761e+01    1.090768e+00
  2.646874e+01    1.010813e+00
  2.657987e+01    1.002265e+00
  2.669100e+01    9.547247e-01
  2.680212e+01    9.915575e-01
  2.691325e+01    1.002511e+00
  2.702438e+01    1.142632e+00
  2.713551e+01    1.749133e+00
  2.724664e+01    2.081998e+00
  2.735777e+01    1.285830e+00
  2.746890e+01    1.002544e+00
  2.758003e+01    9.387302e-01
  2.769116e+01    9.143183e-01
  2.780229e+01    8.916388e-01
  2.791342e+01    8.809971e-01
  2.802454e+01    8.786567e-01
  2.813567e+01    8.678726e-01
  2.824680e+01    8.477881e-01
  2.835793e+01    8.438807e-01
  2.846906e+01    8.667996e-01
  2.858019e+01    8.333985e-01
  2.869132e+01    8.176949e-01
  2.880245e+01    8.305405e-01
  2.891358e+01    8.245705e-01
  2.902471e+01    8.136778e-01
  2.913583e+01    8.173450e-01
  2.924696e+01    7.992609e-01
  2.935809e+01    8.070930e-01
  2.946922e+01    8.061492e-01
  2.958035e+01    7.982014e-01
  2.969148e+01    8.035507e-01
  2.980261e+01    7.986528e-01
  2.991374e+01    8.030062e-01
  3.002487e+01    7.986633e-01
  3.013600e+01    7.946240e-01
  3.024712e+01    7.844877e-01
  3.035825e+01    7.982956e-01
  3.046938e+01    7.899505e-01
  3.058051e+01    7.925693e-01
  3.069164e+01    7.994213e-01
  3.080277e+01    7.902504e-01
  3.091390e+01    7.908989e-01
  3.102503e+01    7.831898e-01
  3.113616e+01    7.986739e-01
  3.124729e+01    7.954304e-01
  3.135841e+01    8.054917e-01
  3.146954e+01    7.855923e-01
  3.158067e+01    8.742689e-01
  3.169180e+01    9.723678e-01
  3.180293e+01    1.460575e+00
  3.191406e+01    2.102061e+00
  3.202519e+01    1.297204e+00
  3.213632e+01    9.488283e-01
  3.224745e+01    8.186445e-01
  3.235858e+01    8.124003e-01
  3.246970e+01    7.711208e-01
  3.254908e+01    7.762716e-01