File: XRD/Reaction conditions/2024-07-27_003_Ru-CGO-ex_Reaction_dwell_000023_data_000187.dat
# == pyFAI calibration ==
# Distance Sample to Detector: 0.4 m
# PONI: 9.750e-02, 1.135e-01 m
# Rotations: -0.000175 0.000000 -0.000000 rad
#
# == Fit2d calibration ==
# Distance Sample-beamCenter: 400.000 mm
# Center: x=1514.000, y=1300.000 pix
# Tilt: 0.010 deg  TiltPlanRot: 0.010 deg
#
# Detector Detector	 Spline= None	 PixelSize= 7.500e-05, 7.500e-05 m
#    Detector has a mask: False
#    Detector has a dark current: False
#    detector has a flat field: False
#
# Wavelength: 6.888e-11 m
# Mask applied: user provided
# Dark current applied: False
# Flat field applied: False
# Polarization factor: 0.99
# Normalization factor: 1.0
# --> /home/myspot/data/2024_07_Rosario/Ru-CGO-ex/2024-07-27_003_Ru-CGO-ex_Reaction_dwell_000023_data_000187.dat
#       q_nm^-1             I
  2.003187e-02    7.712225e-02
  1.311609e-01    2.671745e-03
  2.422899e-01    4.728591e-02
  3.534189e-01    1.809995e-02
  4.645479e-01    3.263868e-02
  5.756770e-01    3.675123e-02
  6.868060e-01    5.670682e-02
  7.979350e-01    1.500968e-01
  9.090640e-01    6.498894e-01
  1.020193e+00    1.251331e+00
  1.131322e+00    1.567751e+00
  1.242451e+00    2.372754e+00
  1.353580e+00    2.698557e+00
  1.464709e+00    2.905292e+00
  1.575838e+00    3.239388e+00
  1.686967e+00    3.012254e+00
  1.798096e+00    3.052394e+00
  1.909225e+00    2.865060e+00
  2.020354e+00    3.141062e+00
  2.131483e+00    2.947191e+00
  2.242612e+00    2.946779e+00
  2.353741e+00    3.119172e+00
  2.464870e+00    3.213166e+00
  2.575999e+00    3.189514e+00
  2.687128e+00    3.140006e+00
  2.798257e+00    3.237844e+00
  2.909386e+00    3.227368e+00
  3.020515e+00    3.267373e+00
  3.131644e+00    3.301565e+00
  3.242773e+00    3.374239e+00
  3.353902e+00    3.345926e+00
  3.465031e+00    3.475039e+00
  3.576160e+00    3.444839e+00
  3.687289e+00    3.415080e+00
  3.798418e+00    3.479287e+00
  3.909547e+00    3.314960e+00
  4.020676e+00    3.521540e+00
  4.131806e+00    3.444199e+00
  4.242935e+00    3.542615e+00
  4.354064e+00    3.447194e+00
  4.465193e+00    3.571767e+00
  4.576322e+00    3.559493e+00
  4.687451e+00    3.555568e+00
  4.798580e+00    3.671660e+00
  4.909709e+00    3.608977e+00
  5.020838e+00    3.545904e+00
  5.131967e+00    3.576052e+00
  5.243096e+00    3.648628e+00
  5.354225e+00    3.642738e+00
  5.465354e+00    3.568091e+00
  5.576483e+00    3.509711e+00
  5.687612e+00    3.526437e+00
  5.798741e+00    3.513450e+00
  5.909870e+00    3.430613e+00
  6.020999e+00    3.525356e+00
  6.132128e+00    3.557065e+00
  6.243257e+00    3.519267e+00
  6.354386e+00    3.487145e+00
  6.465515e+00    3.478944e+00
  6.576644e+00    3.476961e+00
  6.687773e+00    3.459166e+00
  6.798902e+00    3.522789e+00
  6.910031e+00    3.406844e+00
  7.021160e+00    3.467980e+00
  7.132289e+00    3.460253e+00
  7.243418e+00    3.464237e+00
  7.354547e+00    3.467881e+00
  7.465676e+00    3.412258e+00
  7.576805e+00    3.410488e+00
  7.687934e+00    3.367048e+00
  7.799063e+00    3.404602e+00
  7.910192e+00    3.388867e+00
  8.021321e+00    3.364778e+00
  8.132450e+00    3.368958e+00
  8.243579e+00    3.399943e+00
  8.354708e+00    3.325186e+00
  8.465837e+00    3.372724e+00
  8.576966e+00    3.287230e+00
  8.688095e+00    3.300855e+00
  8.799224e+00    3.315865e+00
  8.910353e+00    3.270574e+00
  9.021482e+00    3.257370e+00
  9.132611e+00    3.159242e+00
  9.243740e+00    3.208057e+00
  9.354869e+00    3.204582e+00
  9.465998e+00    3.099841e+00
  9.577127e+00    3.107944e+00
  9.688256e+00    3.177478e+00
  9.799385e+00    3.068618e+00
  9.910514e+00    3.096876e+00
  1.002164e+01    3.016287e+00
  1.013277e+01    3.069797e+00
  1.024390e+01    3.026568e+00
  1.035503e+01    3.005062e+00
  1.046616e+01    3.021307e+00
  1.057729e+01    2.950060e+00
  1.068842e+01    2.893569e+00
  1.079955e+01    2.899423e+00
  1.091068e+01    2.917214e+00
  1.102180e+01    2.845750e+00
  1.113293e+01    2.855530e+00
  1.124406e+01    2.819165e+00
  1.135519e+01    2.791296e+00
  1.146632e+01    2.768630e+00
  1.157745e+01    2.767379e+00
  1.168858e+01    2.745812e+00
  1.179971e+01    2.713993e+00
  1.191084e+01    2.677654e+00
  1.202197e+01    2.626624e+00
  1.213309e+01    2.614310e+00
  1.224422e+01    2.627937e+00
  1.235535e+01    2.686001e+00
  1.246648e+01    2.666209e+00
  1.257761e+01    2.672289e+00
  1.268874e+01    2.732762e+00
  1.279987e+01    2.935131e+00
  1.291100e+01    3.639776e+00
  1.302213e+01    6.624516e+00
  1.313326e+01    1.454854e+01
  1.324438e+01    1.049835e+01
  1.335551e+01    4.348470e+00
  1.346664e+01    3.047579e+00
  1.357777e+01    2.701564e+00
  1.368890e+01    2.557862e+00
  1.380003e+01    2.439471e+00
  1.391116e+01    2.388780e+00
  1.402229e+01    2.324051e+00
  1.413342e+01    2.287921e+00
  1.424455e+01    2.283357e+00
  1.435568e+01    2.201895e+00
  1.446680e+01    2.192873e+00
  1.457793e+01    2.177025e+00
  1.468906e+01    2.144994e+00
  1.480019e+01    2.163794e+00
  1.491132e+01    2.204433e+00
  1.502245e+01    2.463416e+00
  1.513358e+01    3.769989e+00
  1.524471e+01    5.739387e+00
  1.535584e+01    3.711201e+00
  1.546697e+01    2.412516e+00
  1.557809e+01    2.122660e+00
  1.568922e+01    2.014543e+00
  1.580035e+01    1.912085e+00
  1.591148e+01    1.885511e+00
  1.602261e+01    1.840568e+00
  1.613374e+01    1.831130e+00
  1.624487e+01    1.769190e+00
  1.635600e+01    1.774853e+00
  1.646713e+01    1.763622e+00
  1.657826e+01    1.687961e+00
  1.668938e+01    1.668307e+00
  1.680051e+01    1.651431e+00
  1.691164e+01    1.649181e+00
  1.702277e+01    1.653204e+00
  1.713390e+01    1.620239e+00
  1.724503e+01    1.598929e+00
  1.735616e+01    1.548811e+00
  1.746729e+01    1.593482e+00
  1.757842e+01    1.550474e+00
  1.768955e+01    1.514580e+00
  1.780067e+01    1.531374e+00
  1.791180e+01    1.509715e+00
  1.802293e+01    1.469692e+00
  1.813406e+01    1.453176e+00
  1.824519e+01    1.478895e+00
  1.835632e+01    1.467975e+00
  1.846745e+01    1.432221e+00
  1.857858e+01    1.427513e+00
  1.868971e+01    1.396453e+00
  1.880084e+01    1.371991e+00
  1.891196e+01    1.393555e+00
  1.902309e+01    1.352960e+00
  1.913422e+01    1.335973e+00
  1.924535e+01    1.327844e+00
  1.935648e+01    1.329953e+00
  1.946761e+01    1.308987e+00
  1.957874e+01    1.325366e+00
  1.968987e+01    1.303973e+00
  1.980100e+01    1.284104e+00
  1.991213e+01    1.254589e+00
  2.002325e+01    1.291011e+00
  2.013438e+01    1.259549e+00
  2.024551e+01    1.223679e+00
  2.035664e+01    1.222021e+00
  2.046777e+01    1.213768e+00
  2.057890e+01    1.242468e+00
  2.069003e+01    1.211288e+00
  2.080116e+01    1.196271e+00
  2.091229e+01    1.217311e+00
  2.102342e+01    1.194747e+00
  2.113455e+01    1.226050e+00
  2.124567e+01    1.223532e+00
  2.135680e+01    1.285534e+00
  2.146793e+01    1.335609e+00
  2.157906e+01    1.583608e+00
  2.169019e+01    2.484244e+00
  2.180132e+01    5.739804e+00
  2.191245e+01    8.610443e+00
  2.202358e+01    3.579093e+00
  2.213471e+01    1.821804e+00
  2.224584e+01    1.374457e+00
  2.235696e+01    1.213984e+00
  2.246809e+01    1.121307e+00
  2.257922e+01    1.116519e+00
  2.269035e+01    1.068423e+00
  2.280148e+01    1.044056e+00
  2.291261e+01    1.022366e+00
  2.302374e+01    1.022465e+00
  2.313487e+01    1.000647e+00
  2.324600e+01    9.607736e-01
  2.335713e+01    9.498207e-01
  2.346825e+01    9.650547e-01
  2.357938e+01    9.328737e-01
  2.369051e+01    9.266834e-01
  2.380164e+01    8.897089e-01
  2.391277e+01    8.860724e-01
  2.402390e+01    8.732196e-01
  2.413503e+01    8.811635e-01
  2.424616e+01    8.733923e-01
  2.435729e+01    8.612506e-01
  2.446842e+01    8.784692e-01
  2.457954e+01    8.757950e-01
  2.469067e+01    8.788794e-01
  2.480180e+01    8.654472e-01
  2.491293e+01    8.510857e-01
  2.502406e+01    8.765960e-01
  2.513519e+01    8.953075e-01
  2.524632e+01    9.171532e-01
  2.535745e+01    9.557650e-01
  2.546858e+01    1.030326e+00
  2.557971e+01    1.141128e+00
  2.569083e+01    1.466743e+00
  2.580196e+01    2.760492e+00
  2.591309e+01    6.212959e+00
  2.602422e+01    5.167011e+00
  2.613535e+01    2.111681e+00
  2.624648e+01    1.316310e+00
  2.635761e+01    1.087105e+00
  2.646874e+01    1.002744e+00
  2.657987e+01    9.889675e-01
  2.669100e+01    9.481639e-01
  2.680212e+01    9.576805e-01
  2.691325e+01    9.949989e-01
  2.702438e+01    1.141701e+00
  2.713551e+01    1.696195e+00
  2.724664e+01    2.048872e+00
  2.735777e+01    1.251320e+00
  2.746890e+01    9.897776e-01
  2.758003e+01    9.120990e-01
  2.769116e+01    8.991953e-01
  2.780229e+01    9.007177e-01
  2.791342e+01    8.731406e-01
  2.802454e+01    8.576642e-01
  2.813567e+01    8.402420e-01
  2.824680e+01    8.299973e-01
  2.835793e+01    8.368711e-01
  2.846906e+01    8.086388e-01
  2.858019e+01    8.080878e-01
  2.869132e+01    8.248213e-01
  2.880245e+01    8.144421e-01
  2.891358e+01    7.938498e-01
  2.902471e+01    8.239128e-01
  2.913583e+01    8.015370e-01
  2.924696e+01    7.920019e-01
  2.935809e+01    7.875298e-01
  2.946922e+01    7.922962e-01
  2.958035e+01    7.736688e-01
  2.969148e+01    7.732040e-01
  2.980261e+01    7.582244e-01
  2.991374e+01    7.926188e-01
  3.002487e+01    8.064665e-01
  3.013600e+01    7.941853e-01
  3.024712e+01    7.683762e-01
  3.035825e+01    7.796615e-01
  3.046938e+01    7.798910e-01
  3.058051e+01    7.868199e-01
  3.069164e+01    7.717559e-01
  3.080277e+01    7.796894e-01
  3.091390e+01    7.835742e-01
  3.102503e+01    7.783091e-01
  3.113616e+01    7.979395e-01
  3.124729e+01    7.821506e-01
  3.135841e+01    7.965242e-01
  3.146954e+01    8.061025e-01
  3.158067e+01    8.591318e-01
  3.169180e+01    9.821379e-01
  3.180293e+01    1.411814e+00
  3.191406e+01    2.076571e+00
  3.202519e+01    1.305957e+00
  3.213632e+01    9.412511e-01
  3.224745e+01    8.068140e-01
  3.235858e+01    7.787102e-01
  3.246970e+01    7.758452e-01
  3.254908e+01    7.631558e-01