File: XRD/Reaction conditions/2024-07-27_003_Ru-CGO-ex_Reaction_dwell_000023_data_000052.dat
# == pyFAI calibration ==
# Distance Sample to Detector: 0.4 m
# PONI: 9.750e-02, 1.135e-01 m
# Rotations: -0.000175 0.000000 -0.000000 rad
#
# == Fit2d calibration ==
# Distance Sample-beamCenter: 400.000 mm
# Center: x=1514.000, y=1300.000 pix
# Tilt: 0.010 deg  TiltPlanRot: 0.010 deg
#
# Detector Detector	 Spline= None	 PixelSize= 7.500e-05, 7.500e-05 m
#    Detector has a mask: False
#    Detector has a dark current: False
#    detector has a flat field: False
#
# Wavelength: 6.888e-11 m
# Mask applied: user provided
# Dark current applied: False
# Flat field applied: False
# Polarization factor: 0.99
# Normalization factor: 1.0
# --> /home/myspot/data/2024_07_Rosario/Ru-CGO-ex/2024-07-27_003_Ru-CGO-ex_Reaction_dwell_000023_data_000052.dat
#       q_nm^-1             I
  2.003187e-02    0.000000e+00
  1.311609e-01    6.266447e-02
  2.422899e-01    6.993049e-02
  3.534189e-01    5.693572e-02
  4.645479e-01    4.434862e-02
  5.756770e-01    1.717618e-02
  6.868060e-01    4.756268e-02
  7.979350e-01    1.800561e-01
  9.090640e-01    6.180518e-01
  1.020193e+00    1.380540e+00
  1.131322e+00    1.620928e+00
  1.242451e+00    2.264054e+00
  1.353580e+00    2.733953e+00
  1.464709e+00    3.032414e+00
  1.575838e+00    3.280225e+00
  1.686967e+00    3.156064e+00
  1.798096e+00    3.172214e+00
  1.909225e+00    3.157431e+00
  2.020354e+00    3.056613e+00
  2.131483e+00    3.204713e+00
  2.242612e+00    3.039803e+00
  2.353741e+00    3.163759e+00
  2.464870e+00    3.123690e+00
  2.575999e+00    3.174596e+00
  2.687128e+00    3.236028e+00
  2.798257e+00    3.285999e+00
  2.909386e+00    3.198373e+00
  3.020515e+00    3.345416e+00
  3.131644e+00    3.366878e+00
  3.242773e+00    3.348417e+00
  3.353902e+00    3.408674e+00
  3.465031e+00    3.549105e+00
  3.576160e+00    3.436835e+00
  3.687289e+00    3.420865e+00
  3.798418e+00    3.492483e+00
  3.909547e+00    3.511852e+00
  4.020676e+00    3.543386e+00
  4.131806e+00    3.556148e+00
  4.242935e+00    3.566001e+00
  4.354064e+00    3.618614e+00
  4.465193e+00    3.628994e+00
  4.576322e+00    3.590376e+00
  4.687451e+00    3.575935e+00
  4.798580e+00    3.587286e+00
  4.909709e+00    3.778637e+00
  5.020838e+00    3.612848e+00
  5.131967e+00    3.650959e+00
  5.243096e+00    3.630872e+00
  5.354225e+00    3.668373e+00
  5.465354e+00    3.483398e+00
  5.576483e+00    3.590043e+00
  5.687612e+00    3.610932e+00
  5.798741e+00    3.525445e+00
  5.909870e+00    3.492995e+00
  6.020999e+00    3.485441e+00
  6.132128e+00    3.653260e+00
  6.243257e+00    3.530452e+00
  6.354386e+00    3.481465e+00
  6.465515e+00    3.582156e+00
  6.576644e+00    3.499637e+00
  6.687773e+00    3.582300e+00
  6.798902e+00    3.506826e+00
  6.910031e+00    3.639389e+00
  7.021160e+00    3.632511e+00
  7.132289e+00    3.514219e+00
  7.243418e+00    3.495349e+00
  7.354547e+00    3.374717e+00
  7.465676e+00    3.482518e+00
  7.576805e+00    3.465985e+00
  7.687934e+00    3.433456e+00
  7.799063e+00    3.479565e+00
  7.910192e+00    3.542745e+00
  8.021321e+00    3.483766e+00
  8.132450e+00    3.544844e+00
  8.243579e+00    3.446405e+00
  8.354708e+00    3.368210e+00
  8.465837e+00    3.401794e+00
  8.576966e+00    3.324392e+00
  8.688095e+00    3.315686e+00
  8.799224e+00    3.317576e+00
  8.910353e+00    3.288679e+00
  9.021482e+00    3.249475e+00
  9.132611e+00    3.305666e+00
  9.243740e+00    3.265447e+00
  9.354869e+00    3.259183e+00
  9.465998e+00    3.258108e+00
  9.577127e+00    3.240014e+00
  9.688256e+00    3.175230e+00
  9.799385e+00    3.154560e+00
  9.910514e+00    3.075361e+00
  1.002164e+01    3.060605e+00
  1.013277e+01    3.163487e+00
  1.024390e+01    3.099998e+00
  1.035503e+01    3.044786e+00
  1.046616e+01    3.046753e+00
  1.057729e+01    3.009655e+00
  1.068842e+01    2.982368e+00
  1.079955e+01    2.967066e+00
  1.091068e+01    2.935633e+00
  1.102180e+01    2.915269e+00
  1.113293e+01    2.879985e+00
  1.124406e+01    2.871038e+00
  1.135519e+01    2.799991e+00
  1.146632e+01    2.842209e+00
  1.157745e+01    2.764262e+00
  1.168858e+01    2.734167e+00
  1.179971e+01    2.710459e+00
  1.191084e+01    2.740266e+00
  1.202197e+01    2.746025e+00
  1.213309e+01    2.678036e+00
  1.224422e+01    2.669466e+00
  1.235535e+01    2.695170e+00
  1.246648e+01    2.687047e+00
  1.257761e+01    2.740223e+00
  1.268874e+01    2.786861e+00
  1.279987e+01    2.969470e+00
  1.291100e+01    3.603545e+00
  1.302213e+01    6.644725e+00
  1.313326e+01    1.459134e+01
  1.324438e+01    1.067805e+01
  1.335551e+01    4.456826e+00
  1.346664e+01    3.151372e+00
  1.357777e+01    2.715883e+00
  1.368890e+01    2.593931e+00
  1.380003e+01    2.481431e+00
  1.391116e+01    2.375869e+00
  1.402229e+01    2.389672e+00
  1.413342e+01    2.303709e+00
  1.424455e+01    2.251171e+00
  1.435568e+01    2.244302e+00
  1.446680e+01    2.249130e+00
  1.457793e+01    2.235479e+00
  1.468906e+01    2.215458e+00
  1.480019e+01    2.180461e+00
  1.491132e+01    2.245527e+00
  1.502245e+01    2.529273e+00
  1.513358e+01    3.754365e+00
  1.524471e+01    5.700324e+00
  1.535584e+01    3.743836e+00
  1.546697e+01    2.393613e+00
  1.557809e+01    2.133311e+00
  1.568922e+01    1.988071e+00
  1.580035e+01    1.964323e+00
  1.591148e+01    1.905382e+00
  1.602261e+01    1.894970e+00
  1.613374e+01    1.858602e+00
  1.624487e+01    1.801943e+00
  1.635600e+01    1.791786e+00
  1.646713e+01    1.749054e+00
  1.657826e+01    1.752393e+00
  1.668938e+01    1.732975e+00
  1.680051e+01    1.708241e+00
  1.691164e+01    1.676818e+00
  1.702277e+01    1.674543e+00
  1.713390e+01    1.647911e+00
  1.724503e+01    1.641255e+00
  1.735616e+01    1.621903e+00
  1.746729e+01    1.601376e+00
  1.757842e+01    1.571812e+00
  1.768955e+01    1.529637e+00
  1.780067e+01    1.523472e+00
  1.791180e+01    1.505536e+00
  1.802293e+01    1.510551e+00
  1.813406e+01    1.488842e+00
  1.824519e+01    1.485687e+00
  1.835632e+01    1.433240e+00
  1.846745e+01    1.430431e+00
  1.857858e+01    1.436099e+00
  1.868971e+01    1.436359e+00
  1.880084e+01    1.385206e+00
  1.891196e+01    1.400082e+00
  1.902309e+01    1.401853e+00
  1.913422e+01    1.406425e+00
  1.924535e+01    1.371212e+00
  1.935648e+01    1.362740e+00
  1.946761e+01    1.355767e+00
  1.957874e+01    1.323580e+00
  1.968987e+01    1.343248e+00
  1.980100e+01    1.293885e+00
  1.991213e+01    1.300986e+00
  2.002325e+01    1.284325e+00
  2.013438e+01    1.279580e+00
  2.024551e+01    1.263052e+00
  2.035664e+01    1.252780e+00
  2.046777e+01    1.258386e+00
  2.057890e+01    1.259229e+00
  2.069003e+01    1.245024e+00
  2.080116e+01    1.225509e+00
  2.091229e+01    1.247057e+00
  2.102342e+01    1.219009e+00
  2.113455e+01    1.216740e+00
  2.124567e+01    1.246912e+00
  2.135680e+01    1.297411e+00
  2.146793e+01    1.402588e+00
  2.157906e+01    1.584304e+00
  2.169019e+01    2.453308e+00
  2.180132e+01    5.827846e+00
  2.191245e+01    8.710594e+00
  2.202358e+01    3.650161e+00
  2.213471e+01    1.889788e+00
  2.224584e+01    1.414038e+00
  2.235696e+01    1.237347e+00
  2.246809e+01    1.151150e+00
  2.257922e+01    1.122514e+00
  2.269035e+01    1.097916e+00
  2.280148e+01    1.057402e+00
  2.291261e+01    1.034628e+00
  2.302374e+01    1.024304e+00
  2.313487e+01    9.894410e-01
  2.324600e+01    9.912640e-01
  2.335713e+01    9.733627e-01
  2.346825e+01    9.783292e-01
  2.357938e+01    9.725528e-01
  2.369051e+01    9.523426e-01
  2.380164e+01    8.994249e-01
  2.391277e+01    9.189759e-01
  2.402390e+01    9.044979e-01
  2.413503e+01    8.912260e-01
  2.424616e+01    8.659168e-01
  2.435729e+01    8.784984e-01
  2.446842e+01    8.932741e-01
  2.457954e+01    8.898140e-01
  2.469067e+01    8.972070e-01
  2.480180e+01    8.977845e-01
  2.491293e+01    8.840159e-01
  2.502406e+01    9.111595e-01
  2.513519e+01    9.023364e-01
  2.524632e+01    9.450781e-01
  2.535745e+01    9.612967e-01
  2.546858e+01    1.014819e+00
  2.557971e+01    1.187738e+00
  2.569083e+01    1.495492e+00
  2.580196e+01    2.738948e+00
  2.591309e+01    6.246338e+00
  2.602422e+01    5.316417e+00
  2.613535e+01    2.145618e+00
  2.624648e+01    1.353183e+00
  2.635761e+01    1.095556e+00
  2.646874e+01    1.003336e+00
  2.657987e+01    9.842804e-01
  2.669100e+01    9.819976e-01
  2.680212e+01    9.574796e-01
  2.691325e+01    1.024515e+00
  2.702438e+01    1.147341e+00
  2.713551e+01    1.703987e+00
  2.724664e+01    2.098300e+00
  2.735777e+01    1.274403e+00
  2.746890e+01    1.012863e+00
  2.758003e+01    9.455807e-01
  2.769116e+01    9.213943e-01
  2.780229e+01    8.868456e-01
  2.791342e+01    8.958580e-01
  2.802454e+01    8.565443e-01
  2.813567e+01    8.578303e-01
  2.824680e+01    8.492678e-01
  2.835793e+01    8.568349e-01
  2.846906e+01    8.304445e-01
  2.858019e+01    8.318137e-01
  2.869132e+01    8.348819e-01
  2.880245e+01    8.403800e-01
  2.891358e+01    8.040290e-01
  2.902471e+01    8.113240e-01
  2.913583e+01    8.026837e-01
  2.924696e+01    8.186038e-01
  2.935809e+01    8.048365e-01
  2.946922e+01    8.159984e-01
  2.958035e+01    7.745487e-01
  2.969148e+01    7.819020e-01
  2.980261e+01    8.171191e-01
  2.991374e+01    8.023832e-01
  3.002487e+01    8.008808e-01
  3.013600e+01    7.864934e-01
  3.024712e+01    7.778433e-01
  3.035825e+01    7.596391e-01
  3.046938e+01    7.889732e-01
  3.058051e+01    7.968263e-01
  3.069164e+01    7.896181e-01
  3.080277e+01    7.670658e-01
  3.091390e+01    7.807171e-01
  3.102503e+01    8.026285e-01
  3.113616e+01    7.866660e-01
  3.124729e+01    7.787431e-01
  3.135841e+01    7.976121e-01
  3.146954e+01    8.070664e-01
  3.158067e+01    8.499296e-01
  3.169180e+01    9.719518e-01
  3.180293e+01    1.445883e+00
  3.191406e+01    2.075117e+00
  3.202519e+01    1.338849e+00
  3.213632e+01    9.364291e-01
  3.224745e+01    8.335852e-01
  3.235858e+01    8.042624e-01
  3.246970e+01    7.724510e-01
  3.254908e+01    7.711685e-01