File: XRD/Reaction conditions/2024-07-27_003_Ru-CGO-ex_Reaction_dwell_000023_data_000159.dat
# == pyFAI calibration ==
# Distance Sample to Detector: 0.4 m
# PONI: 9.750e-02, 1.135e-01 m
# Rotations: -0.000175 0.000000 -0.000000 rad
#
# == Fit2d calibration ==
# Distance Sample-beamCenter: 400.000 mm
# Center: x=1514.000, y=1300.000 pix
# Tilt: 0.010 deg  TiltPlanRot: 0.010 deg
#
# Detector Detector	 Spline= None	 PixelSize= 7.500e-05, 7.500e-05 m
#    Detector has a mask: False
#    Detector has a dark current: False
#    detector has a flat field: False
#
# Wavelength: 6.888e-11 m
# Mask applied: user provided
# Dark current applied: False
# Flat field applied: False
# Polarization factor: 0.99
# Normalization factor: 1.0
# --> /home/myspot/data/2024_07_Rosario/Ru-CGO-ex/2024-07-27_003_Ru-CGO-ex_Reaction_dwell_000023_data_000159.dat
#       q_nm^-1             I
  2.003187e-02    1.647358e-01
  1.311609e-01    1.144318e-01
  2.422899e-01    6.770003e-02
  3.534189e-01    2.950305e-02
  4.645479e-01    5.456191e-02
  5.756770e-01    5.644136e-02
  6.868060e-01    4.840609e-02
  7.979350e-01    1.866839e-01
  9.090640e-01    7.095793e-01
  1.020193e+00    1.279703e+00
  1.131322e+00    1.614007e+00
  1.242451e+00    2.343660e+00
  1.353580e+00    2.710904e+00
  1.464709e+00    2.862933e+00
  1.575838e+00    3.238983e+00
  1.686967e+00    3.210591e+00
  1.798096e+00    3.086786e+00
  1.909225e+00    3.051058e+00
  2.020354e+00    2.945716e+00
  2.131483e+00    2.980004e+00
  2.242612e+00    3.116387e+00
  2.353741e+00    3.086500e+00
  2.464870e+00    3.152966e+00
  2.575999e+00    3.171509e+00
  2.687128e+00    3.231397e+00
  2.798257e+00    3.340449e+00
  2.909386e+00    3.229153e+00
  3.020515e+00    3.318265e+00
  3.131644e+00    3.333123e+00
  3.242773e+00    3.342695e+00
  3.353902e+00    3.345385e+00
  3.465031e+00    3.445398e+00
  3.576160e+00    3.459629e+00
  3.687289e+00    3.459408e+00
  3.798418e+00    3.440639e+00
  3.909547e+00    3.459195e+00
  4.020676e+00    3.423309e+00
  4.131806e+00    3.519723e+00
  4.242935e+00    3.535338e+00
  4.354064e+00    3.580970e+00
  4.465193e+00    3.560159e+00
  4.576322e+00    3.501581e+00
  4.687451e+00    3.568263e+00
  4.798580e+00    3.556030e+00
  4.909709e+00    3.558473e+00
  5.020838e+00    3.637279e+00
  5.131967e+00    3.664042e+00
  5.243096e+00    3.611424e+00
  5.354225e+00    3.510949e+00
  5.465354e+00    3.495955e+00
  5.576483e+00    3.650463e+00
  5.687612e+00    3.548279e+00
  5.798741e+00    3.618222e+00
  5.909870e+00    3.499732e+00
  6.020999e+00    3.435327e+00
  6.132128e+00    3.484464e+00
  6.243257e+00    3.540567e+00
  6.354386e+00    3.508321e+00
  6.465515e+00    3.605965e+00
  6.576644e+00    3.537752e+00
  6.687773e+00    3.490500e+00
  6.798902e+00    3.541305e+00
  6.910031e+00    3.459142e+00
  7.021160e+00    3.508909e+00
  7.132289e+00    3.513877e+00
  7.243418e+00    3.511870e+00
  7.354547e+00    3.525237e+00
  7.465676e+00    3.463596e+00
  7.576805e+00    3.456418e+00
  7.687934e+00    3.407039e+00
  7.799063e+00    3.408246e+00
  7.910192e+00    3.387268e+00
  8.021321e+00    3.298855e+00
  8.132450e+00    3.393376e+00
  8.243579e+00    3.424015e+00
  8.354708e+00    3.397451e+00
  8.465837e+00    3.323661e+00
  8.576966e+00    3.324048e+00
  8.688095e+00    3.300797e+00
  8.799224e+00    3.265002e+00
  8.910353e+00    3.321587e+00
  9.021482e+00    3.287162e+00
  9.132611e+00    3.295719e+00
  9.243740e+00    3.267480e+00
  9.354869e+00    3.191523e+00
  9.465998e+00    3.170472e+00
  9.577127e+00    3.226987e+00
  9.688256e+00    3.166913e+00
  9.799385e+00    3.143351e+00
  9.910514e+00    3.117380e+00
  1.002164e+01    3.069804e+00
  1.013277e+01    2.984973e+00
  1.024390e+01    3.060114e+00
  1.035503e+01    3.032753e+00
  1.046616e+01    2.993580e+00
  1.057729e+01    2.985132e+00
  1.068842e+01    2.926166e+00
  1.079955e+01    2.934279e+00
  1.091068e+01    2.881062e+00
  1.102180e+01    2.871686e+00
  1.113293e+01    2.852936e+00
  1.124406e+01    2.841421e+00
  1.135519e+01    2.798910e+00
  1.146632e+01    2.838046e+00
  1.157745e+01    2.780199e+00
  1.168858e+01    2.769626e+00
  1.179971e+01    2.720376e+00
  1.191084e+01    2.744297e+00
  1.202197e+01    2.714511e+00
  1.213309e+01    2.677490e+00
  1.224422e+01    2.641693e+00
  1.235535e+01    2.648494e+00
  1.246648e+01    2.697554e+00
  1.257761e+01    2.698769e+00
  1.268874e+01    2.777906e+00
  1.279987e+01    2.985962e+00
  1.291100e+01    3.614243e+00
  1.302213e+01    6.635085e+00
  1.313326e+01    1.462227e+01
  1.324438e+01    1.064058e+01
  1.335551e+01    4.378585e+00
  1.346664e+01    3.125518e+00
  1.357777e+01    2.726252e+00
  1.368890e+01    2.607899e+00
  1.380003e+01    2.423125e+00
  1.391116e+01    2.415374e+00
  1.402229e+01    2.334444e+00
  1.413342e+01    2.274708e+00
  1.424455e+01    2.272584e+00
  1.435568e+01    2.196527e+00
  1.446680e+01    2.189824e+00
  1.457793e+01    2.216415e+00
  1.468906e+01    2.169975e+00
  1.480019e+01    2.226923e+00
  1.491132e+01    2.280019e+00
  1.502245e+01    2.465892e+00
  1.513358e+01    3.797941e+00
  1.524471e+01    5.618280e+00
  1.535584e+01    3.706741e+00
  1.546697e+01    2.449668e+00
  1.557809e+01    2.099068e+00
  1.568922e+01    2.000056e+00
  1.580035e+01    1.933424e+00
  1.591148e+01    1.909770e+00
  1.602261e+01    1.850740e+00
  1.613374e+01    1.802062e+00
  1.624487e+01    1.786993e+00
  1.635600e+01    1.795668e+00
  1.646713e+01    1.747111e+00
  1.657826e+01    1.742484e+00
  1.668938e+01    1.740180e+00
  1.680051e+01    1.695216e+00
  1.691164e+01    1.662992e+00
  1.702277e+01    1.670737e+00
  1.713390e+01    1.621744e+00
  1.724503e+01    1.610370e+00
  1.735616e+01    1.605280e+00
  1.746729e+01    1.564569e+00
  1.757842e+01    1.548796e+00
  1.768955e+01    1.546136e+00
  1.780067e+01    1.562287e+00
  1.791180e+01    1.499218e+00
  1.802293e+01    1.498215e+00
  1.813406e+01    1.480394e+00
  1.824519e+01    1.456938e+00
  1.835632e+01    1.455072e+00
  1.846745e+01    1.444348e+00
  1.857858e+01    1.444772e+00
  1.868971e+01    1.432968e+00
  1.880084e+01    1.417309e+00
  1.891196e+01    1.378490e+00
  1.902309e+01    1.363822e+00
  1.913422e+01    1.381857e+00
  1.924535e+01    1.371019e+00
  1.935648e+01    1.336033e+00
  1.946761e+01    1.321378e+00
  1.957874e+01    1.313876e+00
  1.968987e+01    1.288768e+00
  1.980100e+01    1.302198e+00
  1.991213e+01    1.285951e+00
  2.002325e+01    1.292701e+00
  2.013438e+01    1.256961e+00
  2.024551e+01    1.248663e+00
  2.035664e+01    1.234953e+00
  2.046777e+01    1.252376e+00
  2.057890e+01    1.225148e+00
  2.069003e+01    1.222898e+00
  2.080116e+01    1.239296e+00
  2.091229e+01    1.206736e+00
  2.102342e+01    1.210505e+00
  2.113455e+01    1.194434e+00
  2.124567e+01    1.246936e+00
  2.135680e+01    1.267314e+00
  2.146793e+01    1.356972e+00
  2.157906e+01    1.616068e+00
  2.169019e+01    2.451112e+00
  2.180132e+01    5.809874e+00
  2.191245e+01    8.665181e+00
  2.202358e+01    3.602608e+00
  2.213471e+01    1.856971e+00
  2.224584e+01    1.398849e+00
  2.235696e+01    1.228894e+00
  2.246809e+01    1.146182e+00
  2.257922e+01    1.109418e+00
  2.269035e+01    1.091899e+00
  2.280148e+01    1.073445e+00
  2.291261e+01    1.006407e+00
  2.302374e+01    9.906256e-01
  2.313487e+01    9.897033e-01
  2.324600e+01    1.011619e+00
  2.335713e+01    9.860747e-01
  2.346825e+01    9.676716e-01
  2.357938e+01    9.546288e-01
  2.369051e+01    9.404014e-01
  2.380164e+01    9.026223e-01
  2.391277e+01    8.918568e-01
  2.402390e+01    8.934461e-01
  2.413503e+01    8.827775e-01
  2.424616e+01    8.609957e-01
  2.435729e+01    8.682604e-01
  2.446842e+01    8.687036e-01
  2.457954e+01    9.006837e-01
  2.469067e+01    8.933672e-01
  2.480180e+01    8.814234e-01
  2.491293e+01    8.757925e-01
  2.502406e+01    8.732293e-01
  2.513519e+01    9.154570e-01
  2.524632e+01    9.235921e-01
  2.535745e+01    9.744633e-01
  2.546858e+01    1.017543e+00
  2.557971e+01    1.161557e+00
  2.569083e+01    1.469637e+00
  2.580196e+01    2.753719e+00
  2.591309e+01    6.235425e+00
  2.602422e+01    5.265561e+00
  2.613535e+01    2.086074e+00
  2.624648e+01    1.335933e+00
  2.635761e+01    1.099029e+00
  2.646874e+01    9.989903e-01
  2.657987e+01    1.000131e+00
  2.669100e+01    9.542907e-01
  2.680212e+01    9.783227e-01
  2.691325e+01    9.822119e-01
  2.702438e+01    1.139579e+00
  2.713551e+01    1.707207e+00
  2.724664e+01    2.079027e+00
  2.735777e+01    1.269180e+00
  2.746890e+01    1.031297e+00
  2.758003e+01    9.055915e-01
  2.769116e+01    8.885380e-01
  2.780229e+01    8.620365e-01
  2.791342e+01    8.460090e-01
  2.802454e+01    8.681861e-01
  2.813567e+01    8.294178e-01
  2.824680e+01    8.225901e-01
  2.835793e+01    8.275323e-01
  2.846906e+01    8.148254e-01
  2.858019e+01    8.195764e-01
  2.869132e+01    8.267919e-01
  2.880245e+01    8.121393e-01
  2.891358e+01    8.072296e-01
  2.902471e+01    8.114049e-01
  2.913583e+01    8.137004e-01
  2.924696e+01    7.979526e-01
  2.935809e+01    7.842103e-01
  2.946922e+01    7.828928e-01
  2.958035e+01    7.675823e-01
  2.969148e+01    7.773147e-01
  2.980261e+01    7.919287e-01
  2.991374e+01    7.842087e-01
  3.002487e+01    7.951512e-01
  3.013600e+01    7.918003e-01
  3.024712e+01    7.739407e-01
  3.035825e+01    7.638369e-01
  3.046938e+01    7.878513e-01
  3.058051e+01    7.707560e-01
  3.069164e+01    7.755322e-01
  3.080277e+01    7.695499e-01
  3.091390e+01    8.098577e-01
  3.102503e+01    7.699315e-01
  3.113616e+01    7.479801e-01
  3.124729e+01    7.909631e-01
  3.135841e+01    7.913503e-01
  3.146954e+01    8.220801e-01
  3.158067e+01    8.596654e-01
  3.169180e+01    9.744244e-01
  3.180293e+01    1.431460e+00
  3.191406e+01    2.044384e+00
  3.202519e+01    1.317309e+00
  3.213632e+01    9.245471e-01
  3.224745e+01    8.224394e-01
  3.235858e+01    8.046143e-01
  3.246970e+01    7.752221e-01
  3.254908e+01    7.615382e-01