File: XRD/Reaction conditions/2024-07-27_003_Ru-CGO-ex_Reaction_dwell_000023_data_000173.dat
# == pyFAI calibration ==
# Distance Sample to Detector: 0.4 m
# PONI: 9.750e-02, 1.135e-01 m
# Rotations: -0.000175 0.000000 -0.000000 rad
#
# == Fit2d calibration ==
# Distance Sample-beamCenter: 400.000 mm
# Center: x=1514.000, y=1300.000 pix
# Tilt: 0.010 deg  TiltPlanRot: 0.010 deg
#
# Detector Detector	 Spline= None	 PixelSize= 7.500e-05, 7.500e-05 m
#    Detector has a mask: False
#    Detector has a dark current: False
#    detector has a flat field: False
#
# Wavelength: 6.888e-11 m
# Mask applied: user provided
# Dark current applied: False
# Flat field applied: False
# Polarization factor: 0.99
# Normalization factor: 1.0
# --> /home/myspot/data/2024_07_Rosario/Ru-CGO-ex/2024-07-27_003_Ru-CGO-ex_Reaction_dwell_000023_data_000173.dat
#       q_nm^-1             I
  2.003187e-02    0.000000e+00
  1.311609e-01    6.008370e-02
  2.422899e-01    6.960701e-02
  3.534189e-01    1.796530e-02
  4.645479e-01    6.274588e-02
  5.756770e-01    3.638584e-02
  6.868060e-01    2.792000e-02
  7.979350e-01    1.385163e-01
  9.090640e-01    6.721050e-01
  1.020193e+00    1.407844e+00
  1.131322e+00    1.672421e+00
  1.242451e+00    2.424863e+00
  1.353580e+00    2.748255e+00
  1.464709e+00    2.919119e+00
  1.575838e+00    3.073102e+00
  1.686967e+00    3.066543e+00
  1.798096e+00    3.015612e+00
  1.909225e+00    3.074958e+00
  2.020354e+00    3.004272e+00
  2.131483e+00    3.084471e+00
  2.242612e+00    3.084149e+00
  2.353741e+00    3.139888e+00
  2.464870e+00    3.270475e+00
  2.575999e+00    3.114293e+00
  2.687128e+00    3.135868e+00
  2.798257e+00    3.228943e+00
  2.909386e+00    3.311524e+00
  3.020515e+00    3.335416e+00
  3.131644e+00    3.316974e+00
  3.242773e+00    3.275485e+00
  3.353902e+00    3.273743e+00
  3.465031e+00    3.387423e+00
  3.576160e+00    3.325713e+00
  3.687289e+00    3.442699e+00
  3.798418e+00    3.391887e+00
  3.909547e+00    3.451153e+00
  4.020676e+00    3.448949e+00
  4.131806e+00    3.455271e+00
  4.242935e+00    3.525237e+00
  4.354064e+00    3.530967e+00
  4.465193e+00    3.590264e+00
  4.576322e+00    3.516351e+00
  4.687451e+00    3.552210e+00
  4.798580e+00    3.545698e+00
  4.909709e+00    3.607756e+00
  5.020838e+00    3.623288e+00
  5.131967e+00    3.581918e+00
  5.243096e+00    3.624027e+00
  5.354225e+00    3.621549e+00
  5.465354e+00    3.551345e+00
  5.576483e+00    3.650378e+00
  5.687612e+00    3.545493e+00
  5.798741e+00    3.387861e+00
  5.909870e+00    3.442607e+00
  6.020999e+00    3.463342e+00
  6.132128e+00    3.592638e+00
  6.243257e+00    3.514983e+00
  6.354386e+00    3.531672e+00
  6.465515e+00    3.530688e+00
  6.576644e+00    3.572420e+00
  6.687773e+00    3.507231e+00
  6.798902e+00    3.520413e+00
  6.910031e+00    3.445335e+00
  7.021160e+00    3.440265e+00
  7.132289e+00    3.495571e+00
  7.243418e+00    3.470972e+00
  7.354547e+00    3.477014e+00
  7.465676e+00    3.431257e+00
  7.576805e+00    3.392847e+00
  7.687934e+00    3.412432e+00
  7.799063e+00    3.394321e+00
  7.910192e+00    3.398432e+00
  8.021321e+00    3.354481e+00
  8.132450e+00    3.413508e+00
  8.243579e+00    3.330082e+00
  8.354708e+00    3.367636e+00
  8.465837e+00    3.330380e+00
  8.576966e+00    3.307602e+00
  8.688095e+00    3.253376e+00
  8.799224e+00    3.288579e+00
  8.910353e+00    3.239888e+00
  9.021482e+00    3.271978e+00
  9.132611e+00    3.251971e+00
  9.243740e+00    3.232886e+00
  9.354869e+00    3.144547e+00
  9.465998e+00    3.169808e+00
  9.577127e+00    3.168489e+00
  9.688256e+00    3.112372e+00
  9.799385e+00    3.101920e+00
  9.910514e+00    3.102149e+00
  1.002164e+01    3.058143e+00
  1.013277e+01    3.086431e+00
  1.024390e+01    3.047508e+00
  1.035503e+01    2.978798e+00
  1.046616e+01    2.964124e+00
  1.057729e+01    2.964641e+00
  1.068842e+01    2.974814e+00
  1.079955e+01    2.922250e+00
  1.091068e+01    2.914252e+00
  1.102180e+01    2.895753e+00
  1.113293e+01    2.776283e+00
  1.124406e+01    2.784446e+00
  1.135519e+01    2.835474e+00
  1.146632e+01    2.816082e+00
  1.157745e+01    2.682309e+00
  1.168858e+01    2.726942e+00
  1.179971e+01    2.737941e+00
  1.191084e+01    2.686660e+00
  1.202197e+01    2.640947e+00
  1.213309e+01    2.664003e+00
  1.224422e+01    2.674115e+00
  1.235535e+01    2.665058e+00
  1.246648e+01    2.630530e+00
  1.257761e+01    2.665989e+00
  1.268874e+01    2.820182e+00
  1.279987e+01    2.956985e+00
  1.291100e+01    3.578373e+00
  1.302213e+01    6.732650e+00
  1.313326e+01    1.466021e+01
  1.324438e+01    1.047971e+01
  1.335551e+01    4.351177e+00
  1.346664e+01    3.069434e+00
  1.357777e+01    2.735080e+00
  1.368890e+01    2.552413e+00
  1.380003e+01    2.436431e+00
  1.391116e+01    2.331622e+00
  1.402229e+01    2.291741e+00
  1.413342e+01    2.289865e+00
  1.424455e+01    2.256890e+00
  1.435568e+01    2.260351e+00
  1.446680e+01    2.190374e+00
  1.457793e+01    2.213979e+00
  1.468906e+01    2.150174e+00
  1.480019e+01    2.150939e+00
  1.491132e+01    2.173447e+00
  1.502245e+01    2.526317e+00
  1.513358e+01    3.728874e+00
  1.524471e+01    5.577507e+00
  1.535584e+01    3.670699e+00
  1.546697e+01    2.383611e+00
  1.557809e+01    2.082152e+00
  1.568922e+01    1.977681e+00
  1.580035e+01    1.929448e+00
  1.591148e+01    1.895799e+00
  1.602261e+01    1.869590e+00
  1.613374e+01    1.834281e+00
  1.624487e+01    1.780477e+00
  1.635600e+01    1.783138e+00
  1.646713e+01    1.742772e+00
  1.657826e+01    1.714632e+00
  1.668938e+01    1.687933e+00
  1.680051e+01    1.669890e+00
  1.691164e+01    1.675656e+00
  1.702277e+01    1.657946e+00
  1.713390e+01    1.633129e+00
  1.724503e+01    1.569093e+00
  1.735616e+01    1.561426e+00
  1.746729e+01    1.580673e+00
  1.757842e+01    1.553406e+00
  1.768955e+01    1.527911e+00
  1.780067e+01    1.514785e+00
  1.791180e+01    1.531140e+00
  1.802293e+01    1.482417e+00
  1.813406e+01    1.459882e+00
  1.824519e+01    1.465082e+00
  1.835632e+01    1.431552e+00
  1.846745e+01    1.425325e+00
  1.857858e+01    1.384716e+00
  1.868971e+01    1.414347e+00
  1.880084e+01    1.388335e+00
  1.891196e+01    1.386596e+00
  1.902309e+01    1.372389e+00
  1.913422e+01    1.372553e+00
  1.924535e+01    1.365191e+00
  1.935648e+01    1.308372e+00
  1.946761e+01    1.351448e+00
  1.957874e+01    1.305668e+00
  1.968987e+01    1.274174e+00
  1.980100e+01    1.269807e+00
  1.991213e+01    1.262178e+00
  2.002325e+01    1.260356e+00
  2.013438e+01    1.251498e+00
  2.024551e+01    1.235189e+00
  2.035664e+01    1.237682e+00
  2.046777e+01    1.273903e+00
  2.057890e+01    1.235737e+00
  2.069003e+01    1.197768e+00
  2.080116e+01    1.188011e+00
  2.091229e+01    1.218392e+00
  2.102342e+01    1.189584e+00
  2.113455e+01    1.217611e+00
  2.124567e+01    1.226048e+00
  2.135680e+01    1.277335e+00
  2.146793e+01    1.350928e+00
  2.157906e+01    1.586656e+00
  2.169019e+01    2.499641e+00
  2.180132e+01    5.902114e+00
  2.191245e+01    8.634717e+00
  2.202358e+01    3.549806e+00
  2.213471e+01    1.857463e+00
  2.224584e+01    1.383604e+00
  2.235696e+01    1.227882e+00
  2.246809e+01    1.127080e+00
  2.257922e+01    1.077270e+00
  2.269035e+01    1.063624e+00
  2.280148e+01    1.057313e+00
  2.291261e+01    1.024981e+00
  2.302374e+01    9.950190e-01
  2.313487e+01    9.834521e-01
  2.324600e+01    9.620811e-01
  2.335713e+01    9.495081e-01
  2.346825e+01    9.380212e-01
  2.357938e+01    9.513490e-01
  2.369051e+01    9.219587e-01
  2.380164e+01    9.317389e-01
  2.391277e+01    9.015217e-01
  2.402390e+01    8.844718e-01
  2.413503e+01    8.730440e-01
  2.424616e+01    8.623663e-01
  2.435729e+01    8.529331e-01
  2.446842e+01    8.969952e-01
  2.457954e+01    8.577870e-01
  2.469067e+01    9.069799e-01
  2.480180e+01    8.623525e-01
  2.491293e+01    8.799700e-01
  2.502406e+01    8.827194e-01
  2.513519e+01    8.660138e-01
  2.524632e+01    9.486626e-01
  2.535745e+01    9.666774e-01
  2.546858e+01    1.034659e+00
  2.557971e+01    1.143247e+00
  2.569083e+01    1.490550e+00
  2.580196e+01    2.810341e+00
  2.591309e+01    6.352954e+00
  2.602422e+01    5.095562e+00
  2.613535e+01    2.084533e+00
  2.624648e+01    1.322646e+00
  2.635761e+01    1.069788e+00
  2.646874e+01    1.017758e+00
  2.657987e+01    9.873574e-01
  2.669100e+01    9.587852e-01
  2.680212e+01    9.576452e-01
  2.691325e+01    1.014824e+00
  2.702438e+01    1.133843e+00
  2.713551e+01    1.713236e+00
  2.724664e+01    2.067081e+00
  2.735777e+01    1.266898e+00
  2.746890e+01    1.011588e+00
  2.758003e+01    9.147632e-01
  2.769116e+01    8.994196e-01
  2.780229e+01    8.649841e-01
  2.791342e+01    8.779939e-01
  2.802454e+01    8.519424e-01
  2.813567e+01    8.722542e-01
  2.824680e+01    8.478497e-01
  2.835793e+01    8.285964e-01
  2.846906e+01    8.411966e-01
  2.858019e+01    8.106952e-01
  2.869132e+01    8.530561e-01
  2.880245e+01    8.228592e-01
  2.891358e+01    8.069414e-01
  2.902471e+01    8.019896e-01
  2.913583e+01    7.978940e-01
  2.924696e+01    8.028997e-01
  2.935809e+01    8.048713e-01
  2.946922e+01    8.045945e-01
  2.958035e+01    7.871644e-01
  2.969148e+01    8.021537e-01
  2.980261e+01    7.767162e-01
  2.991374e+01    7.884477e-01
  3.002487e+01    7.961507e-01
  3.013600e+01    7.497192e-01
  3.024712e+01    7.858964e-01
  3.035825e+01    7.861654e-01
  3.046938e+01    7.924650e-01
  3.058051e+01    7.832972e-01
  3.069164e+01    7.487763e-01
  3.080277e+01    7.570804e-01
  3.091390e+01    7.622274e-01
  3.102503e+01    7.736630e-01
  3.113616e+01    7.776624e-01
  3.124729e+01    7.721440e-01
  3.135841e+01    7.996827e-01
  3.146954e+01    7.995030e-01
  3.158067e+01    8.556333e-01
  3.169180e+01    9.789571e-01
  3.180293e+01    1.445555e+00
  3.191406e+01    2.073264e+00
  3.202519e+01    1.275807e+00
  3.213632e+01    9.247810e-01
  3.224745e+01    8.396379e-01
  3.235858e+01    8.026855e-01
  3.246970e+01    7.812902e-01
  3.254908e+01    7.620846e-01