File: XRD/Reaction conditions/2024-07-27_003_Ru-CGO-ex_Reaction_dwell_000023_data_000051.dat
# == pyFAI calibration ==
# Distance Sample to Detector: 0.4 m
# PONI: 9.750e-02, 1.135e-01 m
# Rotations: -0.000175 0.000000 -0.000000 rad
#
# == Fit2d calibration ==
# Distance Sample-beamCenter: 400.000 mm
# Center: x=1514.000, y=1300.000 pix
# Tilt: 0.010 deg  TiltPlanRot: 0.010 deg
#
# Detector Detector	 Spline= None	 PixelSize= 7.500e-05, 7.500e-05 m
#    Detector has a mask: False
#    Detector has a dark current: False
#    detector has a flat field: False
#
# Wavelength: 6.888e-11 m
# Mask applied: user provided
# Dark current applied: False
# Flat field applied: False
# Polarization factor: 0.99
# Normalization factor: 1.0
# --> /home/myspot/data/2024_07_Rosario/Ru-CGO-ex/2024-07-27_003_Ru-CGO-ex_Reaction_dwell_000023_data_000051.dat
#       q_nm^-1             I
  2.003187e-02    2.195781e-01
  1.311609e-01    4.771272e-02
  2.422899e-01    3.057198e-02
  3.534189e-01    1.557531e-02
  4.645479e-01    3.425183e-02
  5.756770e-01    3.997592e-02
  6.868060e-01    4.008800e-02
  7.979350e-01    1.689454e-01
  9.090640e-01    6.704346e-01
  1.020193e+00    1.252508e+00
  1.131322e+00    1.593396e+00
  1.242451e+00    2.302215e+00
  1.353580e+00    2.770383e+00
  1.464709e+00    3.033207e+00
  1.575838e+00    3.129088e+00
  1.686967e+00    3.017782e+00
  1.798096e+00    3.176198e+00
  1.909225e+00    2.933772e+00
  2.020354e+00    3.122095e+00
  2.131483e+00    3.132199e+00
  2.242612e+00    3.200552e+00
  2.353741e+00    3.218488e+00
  2.464870e+00    3.211179e+00
  2.575999e+00    3.281840e+00
  2.687128e+00    3.153247e+00
  2.798257e+00    3.280860e+00
  2.909386e+00    3.232325e+00
  3.020515e+00    3.242041e+00
  3.131644e+00    3.332072e+00
  3.242773e+00    3.371800e+00
  3.353902e+00    3.397149e+00
  3.465031e+00    3.542326e+00
  3.576160e+00    3.446056e+00
  3.687289e+00    3.399732e+00
  3.798418e+00    3.507650e+00
  3.909547e+00    3.577138e+00
  4.020676e+00    3.507762e+00
  4.131806e+00    3.546327e+00
  4.242935e+00    3.531807e+00
  4.354064e+00    3.575973e+00
  4.465193e+00    3.680101e+00
  4.576322e+00    3.486404e+00
  4.687451e+00    3.640795e+00
  4.798580e+00    3.662802e+00
  4.909709e+00    3.648512e+00
  5.020838e+00    3.719739e+00
  5.131967e+00    3.647397e+00
  5.243096e+00    3.737217e+00
  5.354225e+00    3.632607e+00
  5.465354e+00    3.569131e+00
  5.576483e+00    3.653555e+00
  5.687612e+00    3.688529e+00
  5.798741e+00    3.534660e+00
  5.909870e+00    3.645626e+00
  6.020999e+00    3.559829e+00
  6.132128e+00    3.581739e+00
  6.243257e+00    3.552218e+00
  6.354386e+00    3.620390e+00
  6.465515e+00    3.556246e+00
  6.576644e+00    3.574118e+00
  6.687773e+00    3.594287e+00
  6.798902e+00    3.592938e+00
  6.910031e+00    3.552672e+00
  7.021160e+00    3.565779e+00
  7.132289e+00    3.462541e+00
  7.243418e+00    3.521585e+00
  7.354547e+00    3.437414e+00
  7.465676e+00    3.527009e+00
  7.576805e+00    3.472975e+00
  7.687934e+00    3.481761e+00
  7.799063e+00    3.474591e+00
  7.910192e+00    3.497473e+00
  8.021321e+00    3.414030e+00
  8.132450e+00    3.470336e+00
  8.243579e+00    3.546345e+00
  8.354708e+00    3.377009e+00
  8.465837e+00    3.400311e+00
  8.576966e+00    3.361423e+00
  8.688095e+00    3.289414e+00
  8.799224e+00    3.405385e+00
  8.910353e+00    3.286821e+00
  9.021482e+00    3.257793e+00
  9.132611e+00    3.312696e+00
  9.243740e+00    3.275462e+00
  9.354869e+00    3.180268e+00
  9.465998e+00    3.191464e+00
  9.577127e+00    3.245333e+00
  9.688256e+00    3.179456e+00
  9.799385e+00    3.169806e+00
  9.910514e+00    3.071157e+00
  1.002164e+01    3.147445e+00
  1.013277e+01    3.055289e+00
  1.024390e+01    3.069425e+00
  1.035503e+01    3.064936e+00
  1.046616e+01    3.029501e+00
  1.057729e+01    3.036849e+00
  1.068842e+01    2.944244e+00
  1.079955e+01    2.939898e+00
  1.091068e+01    2.892223e+00
  1.102180e+01    2.913429e+00
  1.113293e+01    2.908859e+00
  1.124406e+01    2.835376e+00
  1.135519e+01    2.755322e+00
  1.146632e+01    2.806162e+00
  1.157745e+01    2.806098e+00
  1.168858e+01    2.756773e+00
  1.179971e+01    2.712112e+00
  1.191084e+01    2.699912e+00
  1.202197e+01    2.728061e+00
  1.213309e+01    2.734234e+00
  1.224422e+01    2.717463e+00
  1.235535e+01    2.698602e+00
  1.246648e+01    2.707405e+00
  1.257761e+01    2.760522e+00
  1.268874e+01    2.794667e+00
  1.279987e+01    3.011975e+00
  1.291100e+01    3.666137e+00
  1.302213e+01    6.672896e+00
  1.313326e+01    1.467070e+01
  1.324438e+01    1.066824e+01
  1.335551e+01    4.467027e+00
  1.346664e+01    3.109302e+00
  1.357777e+01    2.741799e+00
  1.368890e+01    2.552194e+00
  1.380003e+01    2.468332e+00
  1.391116e+01    2.427272e+00
  1.402229e+01    2.341579e+00
  1.413342e+01    2.343593e+00
  1.424455e+01    2.279922e+00
  1.435568e+01    2.244358e+00
  1.446680e+01    2.235718e+00
  1.457793e+01    2.213108e+00
  1.468906e+01    2.196082e+00
  1.480019e+01    2.199920e+00
  1.491132e+01    2.240827e+00
  1.502245e+01    2.494702e+00
  1.513358e+01    3.783728e+00
  1.524471e+01    5.741172e+00
  1.535584e+01    3.754780e+00
  1.546697e+01    2.467757e+00
  1.557809e+01    2.140854e+00
  1.568922e+01    2.018103e+00
  1.580035e+01    1.932860e+00
  1.591148e+01    1.873802e+00
  1.602261e+01    1.877625e+00
  1.613374e+01    1.848746e+00
  1.624487e+01    1.803725e+00
  1.635600e+01    1.767974e+00
  1.646713e+01    1.774182e+00
  1.657826e+01    1.740528e+00
  1.668938e+01    1.722206e+00
  1.680051e+01    1.655470e+00
  1.691164e+01    1.712234e+00
  1.702277e+01    1.662537e+00
  1.713390e+01    1.648795e+00
  1.724503e+01    1.625464e+00
  1.735616e+01    1.598580e+00
  1.746729e+01    1.611809e+00
  1.757842e+01    1.583562e+00
  1.768955e+01    1.562768e+00
  1.780067e+01    1.525436e+00
  1.791180e+01    1.509074e+00
  1.802293e+01    1.510689e+00
  1.813406e+01    1.465875e+00
  1.824519e+01    1.494404e+00
  1.835632e+01    1.448663e+00
  1.846745e+01    1.422346e+00
  1.857858e+01    1.412892e+00
  1.868971e+01    1.414075e+00
  1.880084e+01    1.437001e+00
  1.891196e+01    1.400074e+00
  1.902309e+01    1.389851e+00
  1.913422e+01    1.400060e+00
  1.924535e+01    1.359455e+00
  1.935648e+01    1.356103e+00
  1.946761e+01    1.333464e+00
  1.957874e+01    1.327493e+00
  1.968987e+01    1.306208e+00
  1.980100e+01    1.321885e+00
  1.991213e+01    1.295994e+00
  2.002325e+01    1.273342e+00
  2.013438e+01    1.267577e+00
  2.024551e+01    1.253313e+00
  2.035664e+01    1.250427e+00
  2.046777e+01    1.243312e+00
  2.057890e+01    1.228479e+00
  2.069003e+01    1.270575e+00
  2.080116e+01    1.213852e+00
  2.091229e+01    1.219960e+00
  2.102342e+01    1.218808e+00
  2.113455e+01    1.231808e+00
  2.124567e+01    1.254172e+00
  2.135680e+01    1.282755e+00
  2.146793e+01    1.389013e+00
  2.157906e+01    1.649533e+00
  2.169019e+01    2.489899e+00
  2.180132e+01    5.785138e+00
  2.191245e+01    8.773266e+00
  2.202358e+01    3.570251e+00
  2.213471e+01    1.888264e+00
  2.224584e+01    1.434853e+00
  2.235696e+01    1.246629e+00
  2.246809e+01    1.186738e+00
  2.257922e+01    1.125317e+00
  2.269035e+01    1.102476e+00
  2.280148e+01    1.040449e+00
  2.291261e+01    1.030703e+00
  2.302374e+01    1.019509e+00
  2.313487e+01    9.941106e-01
  2.324600e+01    9.896149e-01
  2.335713e+01    9.733321e-01
  2.346825e+01    9.576606e-01
  2.357938e+01    9.584951e-01
  2.369051e+01    9.503539e-01
  2.380164e+01    9.290472e-01
  2.391277e+01    8.884319e-01
  2.402390e+01    9.241909e-01
  2.413503e+01    9.018551e-01
  2.424616e+01    8.844711e-01
  2.435729e+01    9.052992e-01
  2.446842e+01    8.813912e-01
  2.457954e+01    9.015834e-01
  2.469067e+01    8.955019e-01
  2.480180e+01    8.953536e-01
  2.491293e+01    8.988597e-01
  2.502406e+01    9.085150e-01
  2.513519e+01    9.152081e-01
  2.524632e+01    9.242687e-01
  2.535745e+01    9.628266e-01
  2.546858e+01    1.047013e+00
  2.557971e+01    1.137643e+00
  2.569083e+01    1.488062e+00
  2.580196e+01    2.779450e+00
  2.591309e+01    6.278627e+00
  2.602422e+01    5.294327e+00
  2.613535e+01    2.139278e+00
  2.624648e+01    1.323575e+00
  2.635761e+01    1.088153e+00
  2.646874e+01    1.036360e+00
  2.657987e+01    1.000657e+00
  2.669100e+01    9.652332e-01
  2.680212e+01    9.794211e-01
  2.691325e+01    1.019260e+00
  2.702438e+01    1.147420e+00
  2.713551e+01    1.744052e+00
  2.724664e+01    2.087791e+00
  2.735777e+01    1.278895e+00
  2.746890e+01    1.030264e+00
  2.758003e+01    9.530991e-01
  2.769116e+01    9.086019e-01
  2.780229e+01    8.898054e-01
  2.791342e+01    8.767809e-01
  2.802454e+01    8.698260e-01
  2.813567e+01    8.656577e-01
  2.824680e+01    8.414806e-01
  2.835793e+01    8.344040e-01
  2.846906e+01    8.130012e-01
  2.858019e+01    8.361976e-01
  2.869132e+01    8.396525e-01
  2.880245e+01    8.349262e-01
  2.891358e+01    8.148101e-01
  2.902471e+01    8.220021e-01
  2.913583e+01    8.149947e-01
  2.924696e+01    7.993204e-01
  2.935809e+01    8.124875e-01
  2.946922e+01    7.860594e-01
  2.958035e+01    7.959580e-01
  2.969148e+01    8.112010e-01
  2.980261e+01    7.866969e-01
  2.991374e+01    7.849558e-01
  3.002487e+01    8.168529e-01
  3.013600e+01    7.913948e-01
  3.024712e+01    7.763076e-01
  3.035825e+01    7.767047e-01
  3.046938e+01    7.821065e-01
  3.058051e+01    7.958375e-01
  3.069164e+01    7.928330e-01
  3.080277e+01    7.870438e-01
  3.091390e+01    7.796365e-01
  3.102503e+01    7.990208e-01
  3.113616e+01    7.952927e-01
  3.124729e+01    7.801845e-01
  3.135841e+01    7.928871e-01
  3.146954e+01    8.345160e-01
  3.158067e+01    8.474766e-01
  3.169180e+01    9.374537e-01
  3.180293e+01    1.443398e+00
  3.191406e+01    2.099506e+00
  3.202519e+01    1.340744e+00
  3.213632e+01    9.280447e-01
  3.224745e+01    8.014004e-01
  3.235858e+01    7.949092e-01
  3.246970e+01    8.028813e-01
  3.254908e+01    7.842945e-01