File: XRD/Reaction conditions/2024-07-27_003_Ru-CGO-ex_Reaction_dwell_000023_data_000176.dat
# == pyFAI calibration ==
# Distance Sample to Detector: 0.4 m
# PONI: 9.750e-02, 1.135e-01 m
# Rotations: -0.000175 0.000000 -0.000000 rad
#
# == Fit2d calibration ==
# Distance Sample-beamCenter: 400.000 mm
# Center: x=1514.000, y=1300.000 pix
# Tilt: 0.010 deg  TiltPlanRot: 0.010 deg
#
# Detector Detector	 Spline= None	 PixelSize= 7.500e-05, 7.500e-05 m
#    Detector has a mask: False
#    Detector has a dark current: False
#    detector has a flat field: False
#
# Wavelength: 6.888e-11 m
# Mask applied: user provided
# Dark current applied: False
# Flat field applied: False
# Polarization factor: 0.99
# Normalization factor: 1.0
# --> /home/myspot/data/2024_07_Rosario/Ru-CGO-ex/2024-07-27_003_Ru-CGO-ex_Reaction_dwell_000023_data_000176.dat
#       q_nm^-1             I
  2.003187e-02    7.712225e-02
  1.311609e-01    3.383815e-02
  2.422899e-01    3.632917e-02
  3.534189e-01    1.106509e-02
  4.645479e-01    2.748511e-02
  5.756770e-01    3.946443e-02
  6.868060e-01    4.573447e-02
  7.979350e-01    1.816976e-01
  9.090640e-01    7.712961e-01
  1.020193e+00    1.311725e+00
  1.131322e+00    1.549085e+00
  1.242451e+00    2.329786e+00
  1.353580e+00    2.743116e+00
  1.464709e+00    3.127100e+00
  1.575838e+00    3.308944e+00
  1.686967e+00    3.110287e+00
  1.798096e+00    2.977035e+00
  1.909225e+00    3.102531e+00
  2.020354e+00    2.961831e+00
  2.131483e+00    3.007347e+00
  2.242612e+00    3.024931e+00
  2.353741e+00    3.156925e+00
  2.464870e+00    3.013016e+00
  2.575999e+00    3.193640e+00
  2.687128e+00    3.131001e+00
  2.798257e+00    3.315553e+00
  2.909386e+00    3.247118e+00
  3.020515e+00    3.231093e+00
  3.131644e+00    3.367843e+00
  3.242773e+00    3.403743e+00
  3.353902e+00    3.361842e+00
  3.465031e+00    3.379491e+00
  3.576160e+00    3.479669e+00
  3.687289e+00    3.394544e+00
  3.798418e+00    3.519382e+00
  3.909547e+00    3.508031e+00
  4.020676e+00    3.473491e+00
  4.131806e+00    3.584595e+00
  4.242935e+00    3.532722e+00
  4.354064e+00    3.624162e+00
  4.465193e+00    3.488732e+00
  4.576322e+00    3.496132e+00
  4.687451e+00    3.565658e+00
  4.798580e+00    3.554091e+00
  4.909709e+00    3.531612e+00
  5.020838e+00    3.573849e+00
  5.131967e+00    3.610218e+00
  5.243096e+00    3.588724e+00
  5.354225e+00    3.650736e+00
  5.465354e+00    3.545973e+00
  5.576483e+00    3.530955e+00
  5.687612e+00    3.564301e+00
  5.798741e+00    3.505625e+00
  5.909870e+00    3.435407e+00
  6.020999e+00    3.489949e+00
  6.132128e+00    3.642682e+00
  6.243257e+00    3.515591e+00
  6.354386e+00    3.482394e+00
  6.465515e+00    3.516360e+00
  6.576644e+00    3.521650e+00
  6.687773e+00    3.470277e+00
  6.798902e+00    3.492497e+00
  6.910031e+00    3.450813e+00
  7.021160e+00    3.531094e+00
  7.132289e+00    3.456149e+00
  7.243418e+00    3.448722e+00
  7.354547e+00    3.453087e+00
  7.465676e+00    3.544371e+00
  7.576805e+00    3.368093e+00
  7.687934e+00    3.349259e+00
  7.799063e+00    3.379898e+00
  7.910192e+00    3.367516e+00
  8.021321e+00    3.401799e+00
  8.132450e+00    3.413092e+00
  8.243579e+00    3.446501e+00
  8.354708e+00    3.398016e+00
  8.465837e+00    3.394079e+00
  8.576966e+00    3.301479e+00
  8.688095e+00    3.289904e+00
  8.799224e+00    3.289889e+00
  8.910353e+00    3.248788e+00
  9.021482e+00    3.286269e+00
  9.132611e+00    3.245697e+00
  9.243740e+00    3.305726e+00
  9.354869e+00    3.216159e+00
  9.465998e+00    3.159103e+00
  9.577127e+00    3.152437e+00
  9.688256e+00    3.166795e+00
  9.799385e+00    3.145364e+00
  9.910514e+00    3.086814e+00
  1.002164e+01    3.095040e+00
  1.013277e+01    3.093178e+00
  1.024390e+01    2.952660e+00
  1.035503e+01    2.950048e+00
  1.046616e+01    3.041345e+00
  1.057729e+01    2.943763e+00
  1.068842e+01    2.953549e+00
  1.079955e+01    2.929860e+00
  1.091068e+01    2.892913e+00
  1.102180e+01    2.867256e+00
  1.113293e+01    2.822969e+00
  1.124406e+01    2.783378e+00
  1.135519e+01    2.793883e+00
  1.146632e+01    2.737803e+00
  1.157745e+01    2.780404e+00
  1.168858e+01    2.744159e+00
  1.179971e+01    2.681196e+00
  1.191084e+01    2.700476e+00
  1.202197e+01    2.653583e+00
  1.213309e+01    2.653206e+00
  1.224422e+01    2.679347e+00
  1.235535e+01    2.656521e+00
  1.246648e+01    2.660315e+00
  1.257761e+01    2.674334e+00
  1.268874e+01    2.765494e+00
  1.279987e+01    3.008006e+00
  1.291100e+01    3.666519e+00
  1.302213e+01    6.707245e+00
  1.313326e+01    1.473727e+01
  1.324438e+01    1.046251e+01
  1.335551e+01    4.385854e+00
  1.346664e+01    3.100302e+00
  1.357777e+01    2.702812e+00
  1.368890e+01    2.502773e+00
  1.380003e+01    2.408608e+00
  1.391116e+01    2.385658e+00
  1.402229e+01    2.364484e+00
  1.413342e+01    2.319154e+00
  1.424455e+01    2.266250e+00
  1.435568e+01    2.236764e+00
  1.446680e+01    2.204658e+00
  1.457793e+01    2.183974e+00
  1.468906e+01    2.182544e+00
  1.480019e+01    2.168208e+00
  1.491132e+01    2.233761e+00
  1.502245e+01    2.452088e+00
  1.513358e+01    3.816382e+00
  1.524471e+01    5.712601e+00
  1.535584e+01    3.646799e+00
  1.546697e+01    2.373452e+00
  1.557809e+01    2.057795e+00
  1.568922e+01    1.972549e+00
  1.580035e+01    1.887880e+00
  1.591148e+01    1.883249e+00
  1.602261e+01    1.866135e+00
  1.613374e+01    1.804807e+00
  1.624487e+01    1.785103e+00
  1.635600e+01    1.753704e+00
  1.646713e+01    1.742518e+00
  1.657826e+01    1.751729e+00
  1.668938e+01    1.686076e+00
  1.680051e+01    1.674737e+00
  1.691164e+01    1.702408e+00
  1.702277e+01    1.632493e+00
  1.713390e+01    1.632894e+00
  1.724503e+01    1.577342e+00
  1.735616e+01    1.589223e+00
  1.746729e+01    1.552788e+00
  1.757842e+01    1.569678e+00
  1.768955e+01    1.561396e+00
  1.780067e+01    1.504516e+00
  1.791180e+01    1.477612e+00
  1.802293e+01    1.490458e+00
  1.813406e+01    1.480035e+00
  1.824519e+01    1.460298e+00
  1.835632e+01    1.421956e+00
  1.846745e+01    1.443760e+00
  1.857858e+01    1.408162e+00
  1.868971e+01    1.375280e+00
  1.880084e+01    1.405271e+00
  1.891196e+01    1.367189e+00
  1.902309e+01    1.365026e+00
  1.913422e+01    1.354012e+00
  1.924535e+01    1.350633e+00
  1.935648e+01    1.324970e+00
  1.946761e+01    1.312587e+00
  1.957874e+01    1.320415e+00
  1.968987e+01    1.275801e+00
  1.980100e+01    1.261164e+00
  1.991213e+01    1.272220e+00
  2.002325e+01    1.267429e+00
  2.013438e+01    1.260402e+00
  2.024551e+01    1.211610e+00
  2.035664e+01    1.257361e+00
  2.046777e+01    1.234096e+00
  2.057890e+01    1.201228e+00
  2.069003e+01    1.231209e+00
  2.080116e+01    1.217484e+00
  2.091229e+01    1.219154e+00
  2.102342e+01    1.202520e+00
  2.113455e+01    1.223800e+00
  2.124567e+01    1.227064e+00
  2.135680e+01    1.289619e+00
  2.146793e+01    1.360407e+00
  2.157906e+01    1.577347e+00
  2.169019e+01    2.523897e+00
  2.180132e+01    5.863778e+00
  2.191245e+01    8.608573e+00
  2.202358e+01    3.510184e+00
  2.213471e+01    1.837788e+00
  2.224584e+01    1.367929e+00
  2.235696e+01    1.234271e+00
  2.246809e+01    1.137032e+00
  2.257922e+01    1.084364e+00
  2.269035e+01    1.076183e+00
  2.280148e+01    1.061363e+00
  2.291261e+01    1.037160e+00
  2.302374e+01    1.027727e+00
  2.313487e+01    9.867900e-01
  2.324600e+01    9.548372e-01
  2.335713e+01    9.526912e-01
  2.346825e+01    9.478652e-01
  2.357938e+01    9.512033e-01
  2.369051e+01    9.257420e-01
  2.380164e+01    9.216052e-01
  2.391277e+01    8.881231e-01
  2.402390e+01    9.035009e-01
  2.413503e+01    8.768204e-01
  2.424616e+01    8.787880e-01
  2.435729e+01    8.757088e-01
  2.446842e+01    8.758945e-01
  2.457954e+01    8.867465e-01
  2.469067e+01    8.730322e-01
  2.480180e+01    9.073462e-01
  2.491293e+01    9.111755e-01
  2.502406e+01    8.859115e-01
  2.513519e+01    9.011636e-01
  2.524632e+01    9.016783e-01
  2.535745e+01    9.805281e-01
  2.546858e+01    1.043223e+00
  2.557971e+01    1.141965e+00
  2.569083e+01    1.495682e+00
  2.580196e+01    2.840142e+00
  2.591309e+01    6.377025e+00
  2.602422e+01    5.157971e+00
  2.613535e+01    2.082572e+00
  2.624648e+01    1.296165e+00
  2.635761e+01    1.076061e+00
  2.646874e+01    1.025653e+00
  2.657987e+01    9.751784e-01
  2.669100e+01    9.584270e-01
  2.680212e+01    9.722388e-01
  2.691325e+01    1.007585e+00
  2.702438e+01    1.134853e+00
  2.713551e+01    1.721465e+00
  2.724664e+01    2.050817e+00
  2.735777e+01    1.254646e+00
  2.746890e+01    1.038754e+00
  2.758003e+01    9.600596e-01
  2.769116e+01    8.970684e-01
  2.780229e+01    8.620455e-01
  2.791342e+01    8.906444e-01
  2.802454e+01    8.446448e-01
  2.813567e+01    8.544686e-01
  2.824680e+01    8.407024e-01
  2.835793e+01    8.269657e-01
  2.846906e+01    8.328782e-01
  2.858019e+01    8.247035e-01
  2.869132e+01    8.183078e-01
  2.880245e+01    8.179976e-01
  2.891358e+01    8.103876e-01
  2.902471e+01    8.122314e-01
  2.913583e+01    8.132275e-01
  2.924696e+01    7.948210e-01
  2.935809e+01    8.077570e-01
  2.946922e+01    7.868539e-01
  2.958035e+01    7.987472e-01
  2.969148e+01    7.786958e-01
  2.980261e+01    7.979668e-01
  2.991374e+01    7.804068e-01
  3.002487e+01    7.997112e-01
  3.013600e+01    7.647846e-01
  3.024712e+01    7.524686e-01
  3.035825e+01    7.729566e-01
  3.046938e+01    7.922249e-01
  3.058051e+01    7.990054e-01
  3.069164e+01    7.812778e-01
  3.080277e+01    7.583880e-01
  3.091390e+01    7.722679e-01
  3.102503e+01    7.857928e-01
  3.113616e+01    7.734049e-01
  3.124729e+01    7.760401e-01
  3.135841e+01    7.855006e-01
  3.146954e+01    8.071339e-01
  3.158067e+01    8.728455e-01
  3.169180e+01    9.776393e-01
  3.180293e+01    1.441355e+00
  3.191406e+01    2.046765e+00
  3.202519e+01    1.288597e+00
  3.213632e+01    9.245215e-01
  3.224745e+01    8.215903e-01
  3.235858e+01    7.944994e-01
  3.246970e+01    7.926389e-01
  3.254908e+01    7.788064e-01