File: XRD/Reaction conditions/2024-07-27_003_Ru-CGO-ex_Reaction_dwell_000023_data_000070.dat
# == pyFAI calibration ==
# Distance Sample to Detector: 0.4 m
# PONI: 9.750e-02, 1.135e-01 m
# Rotations: -0.000175 0.000000 -0.000000 rad
#
# == Fit2d calibration ==
# Distance Sample-beamCenter: 400.000 mm
# Center: x=1514.000, y=1300.000 pix
# Tilt: 0.010 deg  TiltPlanRot: 0.010 deg
#
# Detector Detector	 Spline= None	 PixelSize= 7.500e-05, 7.500e-05 m
#    Detector has a mask: False
#    Detector has a dark current: False
#    detector has a flat field: False
#
# Wavelength: 6.888e-11 m
# Mask applied: user provided
# Dark current applied: False
# Flat field applied: False
# Polarization factor: 0.99
# Normalization factor: 1.0
# --> /home/myspot/data/2024_07_Rosario/Ru-CGO-ex/2024-07-27_003_Ru-CGO-ex_Reaction_dwell_000023_data_000070.dat
#       q_nm^-1             I
  2.003187e-02    7.711873e-02
  1.311609e-01    8.417908e-02
  2.422899e-01    1.437260e-02
  3.534189e-01    3.530445e-04
  4.645479e-01    5.297225e-02
  5.756770e-01    3.643877e-02
  6.868060e-01    3.361176e-02
  7.979350e-01    2.102893e-01
  9.090640e-01    6.573170e-01
  1.020193e+00    1.437825e+00
  1.131322e+00    1.611690e+00
  1.242451e+00    2.397152e+00
  1.353580e+00    2.755055e+00
  1.464709e+00    2.958103e+00
  1.575838e+00    3.107208e+00
  1.686967e+00    3.062995e+00
  1.798096e+00    3.089343e+00
  1.909225e+00    3.046390e+00
  2.020354e+00    3.075796e+00
  2.131483e+00    3.187918e+00
  2.242612e+00    3.110351e+00
  2.353741e+00    3.020063e+00
  2.464870e+00    3.240664e+00
  2.575999e+00    3.290740e+00
  2.687128e+00    3.244918e+00
  2.798257e+00    3.287544e+00
  2.909386e+00    3.306711e+00
  3.020515e+00    3.323115e+00
  3.131644e+00    3.307520e+00
  3.242773e+00    3.332243e+00
  3.353902e+00    3.363605e+00
  3.465031e+00    3.385511e+00
  3.576160e+00    3.449180e+00
  3.687289e+00    3.598764e+00
  3.798418e+00    3.481495e+00
  3.909547e+00    3.478711e+00
  4.020676e+00    3.505006e+00
  4.131806e+00    3.583284e+00
  4.242935e+00    3.643413e+00
  4.354064e+00    3.632530e+00
  4.465193e+00    3.603728e+00
  4.576322e+00    3.668443e+00
  4.687451e+00    3.490016e+00
  4.798580e+00    3.674871e+00
  4.909709e+00    3.682419e+00
  5.020838e+00    3.647317e+00
  5.131967e+00    3.671800e+00
  5.243096e+00    3.643235e+00
  5.354225e+00    3.575541e+00
  5.465354e+00    3.672394e+00
  5.576483e+00    3.615005e+00
  5.687612e+00    3.626658e+00
  5.798741e+00    3.520227e+00
  5.909870e+00    3.571216e+00
  6.020999e+00    3.557567e+00
  6.132128e+00    3.609482e+00
  6.243257e+00    3.563349e+00
  6.354386e+00    3.590000e+00
  6.465515e+00    3.572621e+00
  6.576644e+00    3.662954e+00
  6.687773e+00    3.536997e+00
  6.798902e+00    3.503561e+00
  6.910031e+00    3.472506e+00
  7.021160e+00    3.577015e+00
  7.132289e+00    3.556643e+00
  7.243418e+00    3.519025e+00
  7.354547e+00    3.525428e+00
  7.465676e+00    3.483107e+00
  7.576805e+00    3.443930e+00
  7.687934e+00    3.446536e+00
  7.799063e+00    3.449319e+00
  7.910192e+00    3.396950e+00
  8.021321e+00    3.402290e+00
  8.132450e+00    3.449796e+00
  8.243579e+00    3.484450e+00
  8.354708e+00    3.333441e+00
  8.465837e+00    3.359794e+00
  8.576966e+00    3.328836e+00
  8.688095e+00    3.338805e+00
  8.799224e+00    3.362131e+00
  8.910353e+00    3.357166e+00
  9.021482e+00    3.309012e+00
  9.132611e+00    3.300937e+00
  9.243740e+00    3.236632e+00
  9.354869e+00    3.258292e+00
  9.465998e+00    3.134922e+00
  9.577127e+00    3.314435e+00
  9.688256e+00    3.246458e+00
  9.799385e+00    3.213097e+00
  9.910514e+00    3.107283e+00
  1.002164e+01    3.146988e+00
  1.013277e+01    3.136156e+00
  1.024390e+01    3.057511e+00
  1.035503e+01    3.087081e+00
  1.046616e+01    2.989603e+00
  1.057729e+01    3.034391e+00
  1.068842e+01    2.981228e+00
  1.079955e+01    2.930066e+00
  1.091068e+01    2.916807e+00
  1.102180e+01    2.889884e+00
  1.113293e+01    2.865360e+00
  1.124406e+01    2.856534e+00
  1.135519e+01    2.799313e+00
  1.146632e+01    2.811318e+00
  1.157745e+01    2.758855e+00
  1.168858e+01    2.813408e+00
  1.179971e+01    2.733934e+00
  1.191084e+01    2.714648e+00
  1.202197e+01    2.704015e+00
  1.213309e+01    2.731539e+00
  1.224422e+01    2.660320e+00
  1.235535e+01    2.705503e+00
  1.246648e+01    2.703824e+00
  1.257761e+01    2.737508e+00
  1.268874e+01    2.836583e+00
  1.279987e+01    2.976627e+00
  1.291100e+01    3.717485e+00
  1.302213e+01    6.661279e+00
  1.313326e+01    1.484464e+01
  1.324438e+01    1.079588e+01
  1.335551e+01    4.417740e+00
  1.346664e+01    3.085409e+00
  1.357777e+01    2.718679e+00
  1.368890e+01    2.529648e+00
  1.380003e+01    2.429790e+00
  1.391116e+01    2.440212e+00
  1.402229e+01    2.342834e+00
  1.413342e+01    2.388115e+00
  1.424455e+01    2.300423e+00
  1.435568e+01    2.306562e+00
  1.446680e+01    2.240956e+00
  1.457793e+01    2.191254e+00
  1.468906e+01    2.180654e+00
  1.480019e+01    2.242860e+00
  1.491132e+01    2.249586e+00
  1.502245e+01    2.493757e+00
  1.513358e+01    3.790584e+00
  1.524471e+01    5.823799e+00
  1.535584e+01    3.786383e+00
  1.546697e+01    2.432896e+00
  1.557809e+01    2.131486e+00
  1.568922e+01    2.021057e+00
  1.580035e+01    1.950263e+00
  1.591148e+01    1.920161e+00
  1.602261e+01    1.827838e+00
  1.613374e+01    1.846315e+00
  1.624487e+01    1.797535e+00
  1.635600e+01    1.798154e+00
  1.646713e+01    1.776080e+00
  1.657826e+01    1.758613e+00
  1.668938e+01    1.702814e+00
  1.680051e+01    1.694867e+00
  1.691164e+01    1.687583e+00
  1.702277e+01    1.636067e+00
  1.713390e+01    1.615049e+00
  1.724503e+01    1.649266e+00
  1.735616e+01    1.584966e+00
  1.746729e+01    1.577477e+00
  1.757842e+01    1.576523e+00
  1.768955e+01    1.541649e+00
  1.780067e+01    1.545482e+00
  1.791180e+01    1.525109e+00
  1.802293e+01    1.500654e+00
  1.813406e+01    1.481665e+00
  1.824519e+01    1.484141e+00
  1.835632e+01    1.465033e+00
  1.846745e+01    1.462682e+00
  1.857858e+01    1.419037e+00
  1.868971e+01    1.399171e+00
  1.880084e+01    1.418564e+00
  1.891196e+01    1.406186e+00
  1.902309e+01    1.395459e+00
  1.913422e+01    1.344178e+00
  1.924535e+01    1.347993e+00
  1.935648e+01    1.347602e+00
  1.946761e+01    1.357285e+00
  1.957874e+01    1.353944e+00
  1.968987e+01    1.303242e+00
  1.980100e+01    1.295266e+00
  1.991213e+01    1.299605e+00
  2.002325e+01    1.279600e+00
  2.013438e+01    1.264835e+00
  2.024551e+01    1.279263e+00
  2.035664e+01    1.238114e+00
  2.046777e+01    1.260890e+00
  2.057890e+01    1.233250e+00
  2.069003e+01    1.235092e+00
  2.080116e+01    1.232751e+00
  2.091229e+01    1.213423e+00
  2.102342e+01    1.216963e+00
  2.113455e+01    1.251086e+00
  2.124567e+01    1.247661e+00
  2.135680e+01    1.308472e+00
  2.146793e+01    1.376851e+00
  2.157906e+01    1.585539e+00
  2.169019e+01    2.494051e+00
  2.180132e+01    5.874652e+00
  2.191245e+01    8.826652e+00
  2.202358e+01    3.670468e+00
  2.213471e+01    1.879597e+00
  2.224584e+01    1.383765e+00
  2.235696e+01    1.241293e+00
  2.246809e+01    1.178321e+00
  2.257922e+01    1.113407e+00
  2.269035e+01    1.073479e+00
  2.280148e+01    1.064304e+00
  2.291261e+01    1.045776e+00
  2.302374e+01    1.032110e+00
  2.313487e+01    9.977671e-01
  2.324600e+01    1.004420e+00
  2.335713e+01    9.893422e-01
  2.346825e+01    9.487182e-01
  2.357938e+01    9.377679e-01
  2.369051e+01    9.504974e-01
  2.380164e+01    9.164765e-01
  2.391277e+01    9.136819e-01
  2.402390e+01    9.078704e-01
  2.413503e+01    8.984183e-01
  2.424616e+01    8.737340e-01
  2.435729e+01    8.921869e-01
  2.446842e+01    9.014340e-01
  2.457954e+01    8.891660e-01
  2.469067e+01    9.039207e-01
  2.480180e+01    8.697425e-01
  2.491293e+01    8.927497e-01
  2.502406e+01    8.872575e-01
  2.513519e+01    9.005296e-01
  2.524632e+01    9.308248e-01
  2.535745e+01    9.840121e-01
  2.546858e+01    1.038337e+00
  2.557971e+01    1.171855e+00
  2.569083e+01    1.496950e+00
  2.580196e+01    2.810213e+00
  2.591309e+01    6.387994e+00
  2.602422e+01    5.337143e+00
  2.613535e+01    2.177848e+00
  2.624648e+01    1.344401e+00
  2.635761e+01    1.104170e+00
  2.646874e+01    1.029065e+00
  2.657987e+01    9.606836e-01
  2.669100e+01    9.811850e-01
  2.680212e+01    9.294695e-01
  2.691325e+01    9.980710e-01
  2.702438e+01    1.145137e+00
  2.713551e+01    1.745127e+00
  2.724664e+01    2.104416e+00
  2.735777e+01    1.271740e+00
  2.746890e+01    1.045823e+00
  2.758003e+01    9.608943e-01
  2.769116e+01    9.180605e-01
  2.780229e+01    8.624006e-01
  2.791342e+01    8.536705e-01
  2.802454e+01    8.688105e-01
  2.813567e+01    8.571773e-01
  2.824680e+01    8.400304e-01
  2.835793e+01    8.548926e-01
  2.846906e+01    8.417124e-01
  2.858019e+01    8.516877e-01
  2.869132e+01    8.301908e-01
  2.880245e+01    8.225809e-01
  2.891358e+01    8.366749e-01
  2.902471e+01    8.173485e-01
  2.913583e+01    8.053396e-01
  2.924696e+01    8.139514e-01
  2.935809e+01    8.001031e-01
  2.946922e+01    8.041000e-01
  2.958035e+01    7.819569e-01
  2.969148e+01    7.913675e-01
  2.980261e+01    7.949478e-01
  2.991374e+01    7.949954e-01
  3.002487e+01    8.133269e-01
  3.013600e+01    7.993831e-01
  3.024712e+01    7.958956e-01
  3.035825e+01    7.855709e-01
  3.046938e+01    7.974300e-01
  3.058051e+01    7.718209e-01
  3.069164e+01    8.069479e-01
  3.080277e+01    8.031133e-01
  3.091390e+01    7.977005e-01
  3.102503e+01    7.775831e-01
  3.113616e+01    8.050409e-01
  3.124729e+01    7.723498e-01
  3.135841e+01    8.050802e-01
  3.146954e+01    8.081761e-01
  3.158067e+01    8.758503e-01
  3.169180e+01    9.944747e-01
  3.180293e+01    1.475387e+00
  3.191406e+01    2.109150e+00
  3.202519e+01    1.338518e+00
  3.213632e+01    9.563642e-01
  3.224745e+01    8.453056e-01
  3.235858e+01    8.229469e-01
  3.246970e+01    7.811445e-01
  3.254908e+01    7.753671e-01