File: XRD/Reaction conditions/2024-07-27_003_Ru-CGO-ex_Reaction_dwell_000023_data_000103.dat
# == pyFAI calibration ==
# Distance Sample to Detector: 0.4 m
# PONI: 9.750e-02, 1.135e-01 m
# Rotations: -0.000175 0.000000 -0.000000 rad
#
# == Fit2d calibration ==
# Distance Sample-beamCenter: 400.000 mm
# Center: x=1514.000, y=1300.000 pix
# Tilt: 0.010 deg  TiltPlanRot: 0.010 deg
#
# Detector Detector	 Spline= None	 PixelSize= 7.500e-05, 7.500e-05 m
#    Detector has a mask: False
#    Detector has a dark current: False
#    detector has a flat field: False
#
# Wavelength: 6.888e-11 m
# Mask applied: user provided
# Dark current applied: False
# Flat field applied: False
# Polarization factor: 0.99
# Normalization factor: 1.0
# --> /home/myspot/data/2024_07_Rosario/Ru-CGO-ex/2024-07-27_003_Ru-CGO-ex_Reaction_dwell_000023_data_000103.dat
#       q_nm^-1             I
  2.003187e-02    0.000000e+00
  1.311609e-01    7.764133e-02
  2.422899e-01    2.394964e-02
  3.534189e-01    2.829147e-02
  4.645479e-01    4.180089e-02
  5.756770e-01    3.627113e-02
  6.868060e-01    4.747520e-02
  7.979350e-01    1.363195e-01
  9.090640e-01    7.257219e-01
  1.020193e+00    1.289057e+00
  1.131322e+00    1.599133e+00
  1.242451e+00    2.403381e+00
  1.353580e+00    2.835231e+00
  1.464709e+00    2.941998e+00
  1.575838e+00    3.224133e+00
  1.686967e+00    3.128625e+00
  1.798096e+00    3.045997e+00
  1.909225e+00    3.043208e+00
  2.020354e+00    3.085596e+00
  2.131483e+00    3.045480e+00
  2.242612e+00    3.067234e+00
  2.353741e+00    3.190484e+00
  2.464870e+00    3.211441e+00
  2.575999e+00    3.137058e+00
  2.687128e+00    3.289848e+00
  2.798257e+00    3.323708e+00
  2.909386e+00    3.340674e+00
  3.020515e+00    3.354977e+00
  3.131644e+00    3.464949e+00
  3.242773e+00    3.439176e+00
  3.353902e+00    3.318018e+00
  3.465031e+00    3.430216e+00
  3.576160e+00    3.534465e+00
  3.687289e+00    3.522221e+00
  3.798418e+00    3.470103e+00
  3.909547e+00    3.483146e+00
  4.020676e+00    3.500913e+00
  4.131806e+00    3.546057e+00
  4.242935e+00    3.579817e+00
  4.354064e+00    3.606612e+00
  4.465193e+00    3.660277e+00
  4.576322e+00    3.582727e+00
  4.687451e+00    3.687036e+00
  4.798580e+00    3.609699e+00
  4.909709e+00    3.710740e+00
  5.020838e+00    3.708164e+00
  5.131967e+00    3.698193e+00
  5.243096e+00    3.687475e+00
  5.354225e+00    3.660419e+00
  5.465354e+00    3.548680e+00
  5.576483e+00    3.562914e+00
  5.687612e+00    3.561549e+00
  5.798741e+00    3.599205e+00
  5.909870e+00    3.582583e+00
  6.020999e+00    3.561657e+00
  6.132128e+00    3.607905e+00
  6.243257e+00    3.621428e+00
  6.354386e+00    3.595050e+00
  6.465515e+00    3.632716e+00
  6.576644e+00    3.619772e+00
  6.687773e+00    3.561441e+00
  6.798902e+00    3.549459e+00
  6.910031e+00    3.570454e+00
  7.021160e+00    3.561704e+00
  7.132289e+00    3.485921e+00
  7.243418e+00    3.474568e+00
  7.354547e+00    3.507013e+00
  7.465676e+00    3.570524e+00
  7.576805e+00    3.361004e+00
  7.687934e+00    3.423148e+00
  7.799063e+00    3.449140e+00
  7.910192e+00    3.444175e+00
  8.021321e+00    3.433617e+00
  8.132450e+00    3.545852e+00
  8.243579e+00    3.479822e+00
  8.354708e+00    3.399242e+00
  8.465837e+00    3.481684e+00
  8.576966e+00    3.331640e+00
  8.688095e+00    3.377027e+00
  8.799224e+00    3.350280e+00
  8.910353e+00    3.311154e+00
  9.021482e+00    3.241701e+00
  9.132611e+00    3.193470e+00
  9.243740e+00    3.248224e+00
  9.354869e+00    3.197418e+00
  9.465998e+00    3.212490e+00
  9.577127e+00    3.231384e+00
  9.688256e+00    3.229151e+00
  9.799385e+00    3.206472e+00
  9.910514e+00    3.063765e+00
  1.002164e+01    3.149781e+00
  1.013277e+01    3.046527e+00
  1.024390e+01    3.029830e+00
  1.035503e+01    3.047854e+00
  1.046616e+01    3.032821e+00
  1.057729e+01    2.983531e+00
  1.068842e+01    2.945568e+00
  1.079955e+01    2.995507e+00
  1.091068e+01    2.979621e+00
  1.102180e+01    2.913263e+00
  1.113293e+01    2.904706e+00
  1.124406e+01    2.872999e+00
  1.135519e+01    2.805182e+00
  1.146632e+01    2.861093e+00
  1.157745e+01    2.796664e+00
  1.168858e+01    2.810144e+00
  1.179971e+01    2.752133e+00
  1.191084e+01    2.723464e+00
  1.202197e+01    2.692922e+00
  1.213309e+01    2.672652e+00
  1.224422e+01    2.718235e+00
  1.235535e+01    2.720158e+00
  1.246648e+01    2.655862e+00
  1.257761e+01    2.772847e+00
  1.268874e+01    2.816617e+00
  1.279987e+01    3.024468e+00
  1.291100e+01    3.658574e+00
  1.302213e+01    6.742296e+00
  1.313326e+01    1.484237e+01
  1.324438e+01    1.077230e+01
  1.335551e+01    4.439321e+00
  1.346664e+01    3.110511e+00
  1.357777e+01    2.754830e+00
  1.368890e+01    2.605203e+00
  1.380003e+01    2.524323e+00
  1.391116e+01    2.402853e+00
  1.402229e+01    2.359638e+00
  1.413342e+01    2.331522e+00
  1.424455e+01    2.258581e+00
  1.435568e+01    2.289905e+00
  1.446680e+01    2.250069e+00
  1.457793e+01    2.235238e+00
  1.468906e+01    2.197044e+00
  1.480019e+01    2.205483e+00
  1.491132e+01    2.195035e+00
  1.502245e+01    2.504900e+00
  1.513358e+01    3.813326e+00
  1.524471e+01    5.764285e+00
  1.535584e+01    3.861830e+00
  1.546697e+01    2.423029e+00
  1.557809e+01    2.103653e+00
  1.568922e+01    2.015203e+00
  1.580035e+01    1.968882e+00
  1.591148e+01    1.915422e+00
  1.602261e+01    1.915810e+00
  1.613374e+01    1.816480e+00
  1.624487e+01    1.799315e+00
  1.635600e+01    1.789247e+00
  1.646713e+01    1.769529e+00
  1.657826e+01    1.776664e+00
  1.668938e+01    1.733704e+00
  1.680051e+01    1.697969e+00
  1.691164e+01    1.710836e+00
  1.702277e+01    1.660551e+00
  1.713390e+01    1.621048e+00
  1.724503e+01    1.656773e+00
  1.735616e+01    1.639558e+00
  1.746729e+01    1.628010e+00
  1.757842e+01    1.558898e+00
  1.768955e+01    1.578031e+00
  1.780067e+01    1.563852e+00
  1.791180e+01    1.524127e+00
  1.802293e+01    1.514973e+00
  1.813406e+01    1.492910e+00
  1.824519e+01    1.485221e+00
  1.835632e+01    1.472604e+00
  1.846745e+01    1.490251e+00
  1.857858e+01    1.457965e+00
  1.868971e+01    1.396345e+00
  1.880084e+01    1.402965e+00
  1.891196e+01    1.399867e+00
  1.902309e+01    1.381354e+00
  1.913422e+01    1.395209e+00
  1.924535e+01    1.392865e+00
  1.935648e+01    1.352107e+00
  1.946761e+01    1.349453e+00
  1.957874e+01    1.317312e+00
  1.968987e+01    1.290048e+00
  1.980100e+01    1.288327e+00
  1.991213e+01    1.285940e+00
  2.002325e+01    1.287164e+00
  2.013438e+01    1.252680e+00
  2.024551e+01    1.255142e+00
  2.035664e+01    1.277990e+00
  2.046777e+01    1.230401e+00
  2.057890e+01    1.213115e+00
  2.069003e+01    1.227685e+00
  2.080116e+01    1.232797e+00
  2.091229e+01    1.220418e+00
  2.102342e+01    1.239696e+00
  2.113455e+01    1.240661e+00
  2.124567e+01    1.264475e+00
  2.135680e+01    1.285868e+00
  2.146793e+01    1.371189e+00
  2.157906e+01    1.611630e+00
  2.169019e+01    2.521283e+00
  2.180132e+01    5.853133e+00
  2.191245e+01    8.789417e+00
  2.202358e+01    3.606749e+00
  2.213471e+01    1.867193e+00
  2.224584e+01    1.432943e+00
  2.235696e+01    1.236381e+00
  2.246809e+01    1.164503e+00
  2.257922e+01    1.130929e+00
  2.269035e+01    1.094822e+00
  2.280148e+01    1.062518e+00
  2.291261e+01    1.052588e+00
  2.302374e+01    1.040030e+00
  2.313487e+01    1.014588e+00
  2.324600e+01    9.843013e-01
  2.335713e+01    1.002003e+00
  2.346825e+01    9.615803e-01
  2.357938e+01    9.713341e-01
  2.369051e+01    9.432448e-01
  2.380164e+01    9.132864e-01
  2.391277e+01    9.194084e-01
  2.402390e+01    8.941999e-01
  2.413503e+01    8.943300e-01
  2.424616e+01    8.815090e-01
  2.435729e+01    9.074892e-01
  2.446842e+01    8.796440e-01
  2.457954e+01    8.797204e-01
  2.469067e+01    8.936028e-01
  2.480180e+01    8.822879e-01
  2.491293e+01    8.936844e-01
  2.502406e+01    8.869002e-01
  2.513519e+01    9.096435e-01
  2.524632e+01    9.350679e-01
  2.535745e+01    9.706315e-01
  2.546858e+01    1.030378e+00
  2.557971e+01    1.192950e+00
  2.569083e+01    1.518960e+00
  2.580196e+01    2.820677e+00
  2.591309e+01    6.354316e+00
  2.602422e+01    5.305623e+00
  2.613535e+01    2.137177e+00
  2.624648e+01    1.345168e+00
  2.635761e+01    1.096791e+00
  2.646874e+01    1.036177e+00
  2.657987e+01    9.871512e-01
  2.669100e+01    9.994225e-01
  2.680212e+01    9.793813e-01
  2.691325e+01    9.820551e-01
  2.702438e+01    1.143601e+00
  2.713551e+01    1.731782e+00
  2.724664e+01    2.107276e+00
  2.735777e+01    1.276013e+00
  2.746890e+01    1.023461e+00
  2.758003e+01    9.371127e-01
  2.769116e+01    9.215611e-01
  2.780229e+01    9.045808e-01
  2.791342e+01    8.823389e-01
  2.802454e+01    8.730394e-01
  2.813567e+01    8.732786e-01
  2.824680e+01    8.577969e-01
  2.835793e+01    8.547693e-01
  2.846906e+01    8.498839e-01
  2.858019e+01    8.348057e-01
  2.869132e+01    8.403574e-01
  2.880245e+01    8.209903e-01
  2.891358e+01    8.190849e-01
  2.902471e+01    8.284516e-01
  2.913583e+01    8.096778e-01
  2.924696e+01    8.438208e-01
  2.935809e+01    8.208622e-01
  2.946922e+01    7.995844e-01
  2.958035e+01    7.989018e-01
  2.969148e+01    8.143827e-01
  2.980261e+01    7.877383e-01
  2.991374e+01    8.004599e-01
  3.002487e+01    8.076049e-01
  3.013600e+01    8.109240e-01
  3.024712e+01    7.867640e-01
  3.035825e+01    7.869552e-01
  3.046938e+01    7.891076e-01
  3.058051e+01    7.957833e-01
  3.069164e+01    7.788850e-01
  3.080277e+01    7.715735e-01
  3.091390e+01    7.783265e-01
  3.102503e+01    7.728426e-01
  3.113616e+01    7.951698e-01
  3.124729e+01    8.144020e-01
  3.135841e+01    7.835332e-01
  3.146954e+01    8.198982e-01
  3.158067e+01    8.832169e-01
  3.169180e+01    1.004444e+00
  3.180293e+01    1.448192e+00
  3.191406e+01    2.062860e+00
  3.202519e+01    1.347571e+00
  3.213632e+01    9.379801e-01
  3.224745e+01    8.335013e-01
  3.235858e+01    7.997134e-01
  3.246970e+01    7.590232e-01
  3.254908e+01    7.639282e-01