File: XRD/Reaction conditions/2024-07-27_003_Ru-CGO-ex_Reaction_dwell_000023_data_000054.dat
# == pyFAI calibration ==
# Distance Sample to Detector: 0.4 m
# PONI: 9.750e-02, 1.135e-01 m
# Rotations: -0.000175 0.000000 -0.000000 rad
#
# == Fit2d calibration ==
# Distance Sample-beamCenter: 400.000 mm
# Center: x=1514.000, y=1300.000 pix
# Tilt: 0.010 deg  TiltPlanRot: 0.010 deg
#
# Detector Detector	 Spline= None	 PixelSize= 7.500e-05, 7.500e-05 m
#    Detector has a mask: False
#    Detector has a dark current: False
#    detector has a flat field: False
#
# Wavelength: 6.888e-11 m
# Mask applied: user provided
# Dark current applied: False
# Flat field applied: False
# Polarization factor: 0.99
# Normalization factor: 1.0
# --> /home/myspot/data/2024_07_Rosario/Ru-CGO-ex/2024-07-27_003_Ru-CGO-ex_Reaction_dwell_000023_data_000054.dat
#       q_nm^-1             I
  2.003187e-02    0.000000e+00
  1.311609e-01    5.027018e-02
  2.422899e-01    1.455680e-02
  3.534189e-01    3.031189e-02
  4.645479e-01    3.129325e-02
  5.756770e-01    4.665501e-02
  6.868060e-01    3.697257e-02
  7.979350e-01    2.519187e-01
  9.090640e-01    6.561851e-01
  1.020193e+00    1.226504e+00
  1.131322e+00    1.682119e+00
  1.242451e+00    2.398717e+00
  1.353580e+00    2.730077e+00
  1.464709e+00    2.991004e+00
  1.575838e+00    3.159940e+00
  1.686967e+00    3.087158e+00
  1.798096e+00    2.985668e+00
  1.909225e+00    3.045125e+00
  2.020354e+00    2.987758e+00
  2.131483e+00    2.938755e+00
  2.242612e+00    3.090712e+00
  2.353741e+00    3.099147e+00
  2.464870e+00    3.159839e+00
  2.575999e+00    3.213408e+00
  2.687128e+00    3.258459e+00
  2.798257e+00    3.223228e+00
  2.909386e+00    3.231382e+00
  3.020515e+00    3.305518e+00
  3.131644e+00    3.382193e+00
  3.242773e+00    3.382674e+00
  3.353902e+00    3.397405e+00
  3.465031e+00    3.375890e+00
  3.576160e+00    3.503966e+00
  3.687289e+00    3.375479e+00
  3.798418e+00    3.608791e+00
  3.909547e+00    3.594767e+00
  4.020676e+00    3.563629e+00
  4.131806e+00    3.625922e+00
  4.242935e+00    3.483176e+00
  4.354064e+00    3.544971e+00
  4.465193e+00    3.592233e+00
  4.576322e+00    3.632349e+00
  4.687451e+00    3.611474e+00
  4.798580e+00    3.595273e+00
  4.909709e+00    3.645402e+00
  5.020838e+00    3.642453e+00
  5.131967e+00    3.690989e+00
  5.243096e+00    3.651704e+00
  5.354225e+00    3.620502e+00
  5.465354e+00    3.719296e+00
  5.576483e+00    3.589759e+00
  5.687612e+00    3.569318e+00
  5.798741e+00    3.530121e+00
  5.909870e+00    3.604857e+00
  6.020999e+00    3.509016e+00
  6.132128e+00    3.588971e+00
  6.243257e+00    3.564144e+00
  6.354386e+00    3.511095e+00
  6.465515e+00    3.540167e+00
  6.576644e+00    3.569522e+00
  6.687773e+00    3.512349e+00
  6.798902e+00    3.567970e+00
  6.910031e+00    3.538564e+00
  7.021160e+00    3.546705e+00
  7.132289e+00    3.514373e+00
  7.243418e+00    3.551076e+00
  7.354547e+00    3.579091e+00
  7.465676e+00    3.549998e+00
  7.576805e+00    3.472895e+00
  7.687934e+00    3.437188e+00
  7.799063e+00    3.391728e+00
  7.910192e+00    3.440395e+00
  8.021321e+00    3.452820e+00
  8.132450e+00    3.499025e+00
  8.243579e+00    3.476271e+00
  8.354708e+00    3.420552e+00
  8.465837e+00    3.408798e+00
  8.576966e+00    3.419825e+00
  8.688095e+00    3.323964e+00
  8.799224e+00    3.291200e+00
  8.910353e+00    3.281254e+00
  9.021482e+00    3.280018e+00
  9.132611e+00    3.228450e+00
  9.243740e+00    3.237273e+00
  9.354869e+00    3.218441e+00
  9.465998e+00    3.261022e+00
  9.577127e+00    3.174250e+00
  9.688256e+00    3.168411e+00
  9.799385e+00    3.165190e+00
  9.910514e+00    3.137717e+00
  1.002164e+01    3.118088e+00
  1.013277e+01    3.143906e+00
  1.024390e+01    3.028666e+00
  1.035503e+01    2.992743e+00
  1.046616e+01    2.989054e+00
  1.057729e+01    2.951523e+00
  1.068842e+01    3.041195e+00
  1.079955e+01    2.958795e+00
  1.091068e+01    2.863213e+00
  1.102180e+01    2.908345e+00
  1.113293e+01    2.865945e+00
  1.124406e+01    2.823052e+00
  1.135519e+01    2.873520e+00
  1.146632e+01    2.829989e+00
  1.157745e+01    2.765942e+00
  1.168858e+01    2.765113e+00
  1.179971e+01    2.761047e+00
  1.191084e+01    2.746459e+00
  1.202197e+01    2.697027e+00
  1.213309e+01    2.707388e+00
  1.224422e+01    2.699093e+00
  1.235535e+01    2.713357e+00
  1.246648e+01    2.677546e+00
  1.257761e+01    2.762386e+00
  1.268874e+01    2.788763e+00
  1.279987e+01    3.003871e+00
  1.291100e+01    3.646309e+00
  1.302213e+01    6.590303e+00
  1.313326e+01    1.466849e+01
  1.324438e+01    1.072666e+01
  1.335551e+01    4.468739e+00
  1.346664e+01    3.111448e+00
  1.357777e+01    2.743165e+00
  1.368890e+01    2.581370e+00
  1.380003e+01    2.474345e+00
  1.391116e+01    2.396415e+00
  1.402229e+01    2.339058e+00
  1.413342e+01    2.330533e+00
  1.424455e+01    2.272157e+00
  1.435568e+01    2.265266e+00
  1.446680e+01    2.223307e+00
  1.457793e+01    2.183860e+00
  1.468906e+01    2.213924e+00
  1.480019e+01    2.177621e+00
  1.491132e+01    2.191734e+00
  1.502245e+01    2.519396e+00
  1.513358e+01    3.785467e+00
  1.524471e+01    5.717260e+00
  1.535584e+01    3.776516e+00
  1.546697e+01    2.454035e+00
  1.557809e+01    2.140891e+00
  1.568922e+01    2.004557e+00
  1.580035e+01    1.934807e+00
  1.591148e+01    1.939907e+00
  1.602261e+01    1.880746e+00
  1.613374e+01    1.871612e+00
  1.624487e+01    1.815912e+00
  1.635600e+01    1.761256e+00
  1.646713e+01    1.783308e+00
  1.657826e+01    1.762229e+00
  1.668938e+01    1.734700e+00
  1.680051e+01    1.705998e+00
  1.691164e+01    1.710523e+00
  1.702277e+01    1.721585e+00
  1.713390e+01    1.676317e+00
  1.724503e+01    1.625289e+00
  1.735616e+01    1.590425e+00
  1.746729e+01    1.601145e+00
  1.757842e+01    1.553570e+00
  1.768955e+01    1.545179e+00
  1.780067e+01    1.518468e+00
  1.791180e+01    1.533345e+00
  1.802293e+01    1.490829e+00
  1.813406e+01    1.460571e+00
  1.824519e+01    1.475439e+00
  1.835632e+01    1.465388e+00
  1.846745e+01    1.465868e+00
  1.857858e+01    1.445561e+00
  1.868971e+01    1.393081e+00
  1.880084e+01    1.385040e+00
  1.891196e+01    1.427816e+00
  1.902309e+01    1.373542e+00
  1.913422e+01    1.387504e+00
  1.924535e+01    1.338644e+00
  1.935648e+01    1.323044e+00
  1.946761e+01    1.362238e+00
  1.957874e+01    1.326410e+00
  1.968987e+01    1.331849e+00
  1.980100e+01    1.310974e+00
  1.991213e+01    1.289928e+00
  2.002325e+01    1.277534e+00
  2.013438e+01    1.271301e+00
  2.024551e+01    1.276051e+00
  2.035664e+01    1.213334e+00
  2.046777e+01    1.245653e+00
  2.057890e+01    1.232142e+00
  2.069003e+01    1.227898e+00
  2.080116e+01    1.228099e+00
  2.091229e+01    1.231380e+00
  2.102342e+01    1.225298e+00
  2.113455e+01    1.241296e+00
  2.124567e+01    1.252508e+00
  2.135680e+01    1.285398e+00
  2.146793e+01    1.370258e+00
  2.157906e+01    1.596170e+00
  2.169019e+01    2.475459e+00
  2.180132e+01    5.731473e+00
  2.191245e+01    8.684860e+00
  2.202358e+01    3.644474e+00
  2.213471e+01    1.873321e+00
  2.224584e+01    1.431106e+00
  2.235696e+01    1.237181e+00
  2.246809e+01    1.148271e+00
  2.257922e+01    1.120167e+00
  2.269035e+01    1.068425e+00
  2.280148e+01    1.065768e+00
  2.291261e+01    1.047825e+00
  2.302374e+01    1.010276e+00
  2.313487e+01    1.005291e+00
  2.324600e+01    9.936678e-01
  2.335713e+01    9.754536e-01
  2.346825e+01    9.781539e-01
  2.357938e+01    9.521965e-01
  2.369051e+01    9.472561e-01
  2.380164e+01    9.164708e-01
  2.391277e+01    9.019808e-01
  2.402390e+01    8.815753e-01
  2.413503e+01    8.912549e-01
  2.424616e+01    8.708371e-01
  2.435729e+01    9.001425e-01
  2.446842e+01    8.912016e-01
  2.457954e+01    9.079298e-01
  2.469067e+01    8.867867e-01
  2.480180e+01    8.747056e-01
  2.491293e+01    9.078791e-01
  2.502406e+01    9.054378e-01
  2.513519e+01    9.141963e-01
  2.524632e+01    9.331312e-01
  2.535745e+01    9.635182e-01
  2.546858e+01    1.014848e+00
  2.557971e+01    1.172009e+00
  2.569083e+01    1.478794e+00
  2.580196e+01    2.754662e+00
  2.591309e+01    6.296800e+00
  2.602422e+01    5.347493e+00
  2.613535e+01    2.162368e+00
  2.624648e+01    1.339742e+00
  2.635761e+01    1.111513e+00
  2.646874e+01    1.002996e+00
  2.657987e+01    9.975878e-01
  2.669100e+01    9.393944e-01
  2.680212e+01    9.826759e-01
  2.691325e+01    1.016607e+00
  2.702438e+01    1.156320e+00
  2.713551e+01    1.716527e+00
  2.724664e+01    2.084285e+00
  2.735777e+01    1.283706e+00
  2.746890e+01    1.043038e+00
  2.758003e+01    9.455407e-01
  2.769116e+01    9.008908e-01
  2.780229e+01    8.945823e-01
  2.791342e+01    8.797601e-01
  2.802454e+01    8.786387e-01
  2.813567e+01    8.509272e-01
  2.824680e+01    8.491447e-01
  2.835793e+01    8.453405e-01
  2.846906e+01    8.438409e-01
  2.858019e+01    8.377919e-01
  2.869132e+01    8.538231e-01
  2.880245e+01    8.109505e-01
  2.891358e+01    8.099399e-01
  2.902471e+01    8.184256e-01
  2.913583e+01    8.015478e-01
  2.924696e+01    8.059790e-01
  2.935809e+01    8.315731e-01
  2.946922e+01    7.935805e-01
  2.958035e+01    7.967857e-01
  2.969148e+01    7.937638e-01
  2.980261e+01    7.842539e-01
  2.991374e+01    8.018286e-01
  3.002487e+01    7.903705e-01
  3.013600e+01    8.206184e-01
  3.024712e+01    7.779678e-01
  3.035825e+01    7.634366e-01
  3.046938e+01    7.920234e-01
  3.058051e+01    7.950198e-01
  3.069164e+01    7.651672e-01
  3.080277e+01    7.968839e-01
  3.091390e+01    7.779778e-01
  3.102503e+01    7.962051e-01
  3.113616e+01    7.606584e-01
  3.124729e+01    7.754487e-01
  3.135841e+01    7.599486e-01
  3.146954e+01    8.158038e-01
  3.158067e+01    8.694296e-01
  3.169180e+01    1.000728e+00
  3.180293e+01    1.431411e+00
  3.191406e+01    2.083472e+00
  3.202519e+01    1.298285e+00
  3.213632e+01    9.453072e-01
  3.224745e+01    8.310804e-01
  3.235858e+01    8.014777e-01
  3.246970e+01    7.759618e-01
  3.254908e+01    7.746280e-01