File: XRD/Reaction conditions/2024-07-27_003_Ru-CGO-ex_Reaction_dwell_000023_data_000152.dat
# == pyFAI calibration ==
# Distance Sample to Detector: 0.4 m
# PONI: 9.750e-02, 1.135e-01 m
# Rotations: -0.000175 0.000000 -0.000000 rad
#
# == Fit2d calibration ==
# Distance Sample-beamCenter: 400.000 mm
# Center: x=1514.000, y=1300.000 pix
# Tilt: 0.010 deg  TiltPlanRot: 0.010 deg
#
# Detector Detector	 Spline= None	 PixelSize= 7.500e-05, 7.500e-05 m
#    Detector has a mask: False
#    Detector has a dark current: False
#    detector has a flat field: False
#
# Wavelength: 6.888e-11 m
# Mask applied: user provided
# Dark current applied: False
# Flat field applied: False
# Polarization factor: 0.99
# Normalization factor: 1.0
# --> /home/myspot/data/2024_07_Rosario/Ru-CGO-ex/2024-07-27_003_Ru-CGO-ex_Reaction_dwell_000023_data_000152.dat
#       q_nm^-1             I
  2.003187e-02    0.000000e+00
  1.311609e-01    3.847094e-02
  2.422899e-01    3.025105e-02
  3.534189e-01    1.022369e-01
  4.645479e-01    5.530834e-02
  5.756770e-01    3.759971e-02
  6.868060e-01    2.713955e-02
  7.979350e-01    1.263373e-01
  9.090640e-01    6.247116e-01
  1.020193e+00    1.148432e+00
  1.131322e+00    1.661627e+00
  1.242451e+00    2.415530e+00
  1.353580e+00    2.760377e+00
  1.464709e+00    2.958099e+00
  1.575838e+00    3.127184e+00
  1.686967e+00    2.972432e+00
  1.798096e+00    3.141125e+00
  1.909225e+00    3.020281e+00
  2.020354e+00    3.124035e+00
  2.131483e+00    3.136916e+00
  2.242612e+00    3.167128e+00
  2.353741e+00    3.183368e+00
  2.464870e+00    3.168663e+00
  2.575999e+00    3.233277e+00
  2.687128e+00    3.178387e+00
  2.798257e+00    3.268510e+00
  2.909386e+00    3.354039e+00
  3.020515e+00    3.289084e+00
  3.131644e+00    3.287137e+00
  3.242773e+00    3.328183e+00
  3.353902e+00    3.241880e+00
  3.465031e+00    3.419781e+00
  3.576160e+00    3.388734e+00
  3.687289e+00    3.409505e+00
  3.798418e+00    3.455749e+00
  3.909547e+00    3.349012e+00
  4.020676e+00    3.533422e+00
  4.131806e+00    3.484415e+00
  4.242935e+00    3.531258e+00
  4.354064e+00    3.534723e+00
  4.465193e+00    3.553317e+00
  4.576322e+00    3.694657e+00
  4.687451e+00    3.599764e+00
  4.798580e+00    3.502517e+00
  4.909709e+00    3.603867e+00
  5.020838e+00    3.641135e+00
  5.131967e+00    3.668670e+00
  5.243096e+00    3.661553e+00
  5.354225e+00    3.656981e+00
  5.465354e+00    3.467483e+00
  5.576483e+00    3.624238e+00
  5.687612e+00    3.579202e+00
  5.798741e+00    3.616170e+00
  5.909870e+00    3.525991e+00
  6.020999e+00    3.470033e+00
  6.132128e+00    3.652652e+00
  6.243257e+00    3.621466e+00
  6.354386e+00    3.569623e+00
  6.465515e+00    3.596552e+00
  6.576644e+00    3.504574e+00
  6.687773e+00    3.535609e+00
  6.798902e+00    3.566393e+00
  6.910031e+00    3.421933e+00
  7.021160e+00    3.512607e+00
  7.132289e+00    3.442765e+00
  7.243418e+00    3.555960e+00
  7.354547e+00    3.448912e+00
  7.465676e+00    3.561188e+00
  7.576805e+00    3.468341e+00
  7.687934e+00    3.463161e+00
  7.799063e+00    3.480919e+00
  7.910192e+00    3.368026e+00
  8.021321e+00    3.456820e+00
  8.132450e+00    3.435386e+00
  8.243579e+00    3.466614e+00
  8.354708e+00    3.426354e+00
  8.465837e+00    3.323339e+00
  8.576966e+00    3.278018e+00
  8.688095e+00    3.295846e+00
  8.799224e+00    3.299561e+00
  8.910353e+00    3.338556e+00
  9.021482e+00    3.281612e+00
  9.132611e+00    3.250469e+00
  9.243740e+00    3.268362e+00
  9.354869e+00    3.232720e+00
  9.465998e+00    3.250673e+00
  9.577127e+00    3.170978e+00
  9.688256e+00    3.191689e+00
  9.799385e+00    3.180602e+00
  9.910514e+00    3.121270e+00
  1.002164e+01    3.119616e+00
  1.013277e+01    3.118149e+00
  1.024390e+01    3.016076e+00
  1.035503e+01    3.111953e+00
  1.046616e+01    3.001964e+00
  1.057729e+01    2.994678e+00
  1.068842e+01    3.017782e+00
  1.079955e+01    2.896417e+00
  1.091068e+01    2.925025e+00
  1.102180e+01    2.933656e+00
  1.113293e+01    2.868446e+00
  1.124406e+01    2.848143e+00
  1.135519e+01    2.784913e+00
  1.146632e+01    2.784921e+00
  1.157745e+01    2.792758e+00
  1.168858e+01    2.766207e+00
  1.179971e+01    2.742267e+00
  1.191084e+01    2.698726e+00
  1.202197e+01    2.685981e+00
  1.213309e+01    2.673913e+00
  1.224422e+01    2.713198e+00
  1.235535e+01    2.678248e+00
  1.246648e+01    2.659234e+00
  1.257761e+01    2.748198e+00
  1.268874e+01    2.779270e+00
  1.279987e+01    3.003211e+00
  1.291100e+01    3.645715e+00
  1.302213e+01    6.683042e+00
  1.313326e+01    1.467290e+01
  1.324438e+01    1.063528e+01
  1.335551e+01    4.415847e+00
  1.346664e+01    3.133022e+00
  1.357777e+01    2.725812e+00
  1.368890e+01    2.549662e+00
  1.380003e+01    2.494152e+00
  1.391116e+01    2.415616e+00
  1.402229e+01    2.356453e+00
  1.413342e+01    2.319936e+00
  1.424455e+01    2.306178e+00
  1.435568e+01    2.202963e+00
  1.446680e+01    2.247729e+00
  1.457793e+01    2.206404e+00
  1.468906e+01    2.159784e+00
  1.480019e+01    2.178732e+00
  1.491132e+01    2.220809e+00
  1.502245e+01    2.482091e+00
  1.513358e+01    3.737045e+00
  1.524471e+01    5.688828e+00
  1.535584e+01    3.717953e+00
  1.546697e+01    2.386845e+00
  1.557809e+01    2.155910e+00
  1.568922e+01    1.979467e+00
  1.580035e+01    1.942439e+00
  1.591148e+01    1.897603e+00
  1.602261e+01    1.859058e+00
  1.613374e+01    1.804373e+00
  1.624487e+01    1.823646e+00
  1.635600e+01    1.832468e+00
  1.646713e+01    1.761237e+00
  1.657826e+01    1.772843e+00
  1.668938e+01    1.718780e+00
  1.680051e+01    1.712388e+00
  1.691164e+01    1.679846e+00
  1.702277e+01    1.645565e+00
  1.713390e+01    1.644163e+00
  1.724503e+01    1.594746e+00
  1.735616e+01    1.598839e+00
  1.746729e+01    1.608121e+00
  1.757842e+01    1.561439e+00
  1.768955e+01    1.541953e+00
  1.780067e+01    1.534300e+00
  1.791180e+01    1.541323e+00
  1.802293e+01    1.497159e+00
  1.813406e+01    1.487455e+00
  1.824519e+01    1.459592e+00
  1.835632e+01    1.456599e+00
  1.846745e+01    1.471634e+00
  1.857858e+01    1.436767e+00
  1.868971e+01    1.416742e+00
  1.880084e+01    1.403767e+00
  1.891196e+01    1.397798e+00
  1.902309e+01    1.339375e+00
  1.913422e+01    1.377779e+00
  1.924535e+01    1.386250e+00
  1.935648e+01    1.346043e+00
  1.946761e+01    1.325890e+00
  1.957874e+01    1.314882e+00
  1.968987e+01    1.297863e+00
  1.980100e+01    1.295588e+00
  1.991213e+01    1.285583e+00
  2.002325e+01    1.269115e+00
  2.013438e+01    1.260152e+00
  2.024551e+01    1.250973e+00
  2.035664e+01    1.277463e+00
  2.046777e+01    1.248388e+00
  2.057890e+01    1.221947e+00
  2.069003e+01    1.209967e+00
  2.080116e+01    1.200240e+00
  2.091229e+01    1.238937e+00
  2.102342e+01    1.208046e+00
  2.113455e+01    1.214531e+00
  2.124567e+01    1.244328e+00
  2.135680e+01    1.279813e+00
  2.146793e+01    1.377700e+00
  2.157906e+01    1.621920e+00
  2.169019e+01    2.485930e+00
  2.180132e+01    5.813584e+00
  2.191245e+01    8.680594e+00
  2.202358e+01    3.645675e+00
  2.213471e+01    1.854947e+00
  2.224584e+01    1.388369e+00
  2.235696e+01    1.245352e+00
  2.246809e+01    1.172012e+00
  2.257922e+01    1.123232e+00
  2.269035e+01    1.081507e+00
  2.280148e+01    1.064262e+00
  2.291261e+01    1.030845e+00
  2.302374e+01    1.013076e+00
  2.313487e+01    1.010673e+00
  2.324600e+01    9.799874e-01
  2.335713e+01    9.782237e-01
  2.346825e+01    9.427662e-01
  2.357938e+01    9.487289e-01
  2.369051e+01    9.189488e-01
  2.380164e+01    9.119903e-01
  2.391277e+01    8.982985e-01
  2.402390e+01    8.897092e-01
  2.413503e+01    8.911026e-01
  2.424616e+01    8.621196e-01
  2.435729e+01    8.803225e-01
  2.446842e+01    9.099801e-01
  2.457954e+01    8.871660e-01
  2.469067e+01    8.865222e-01
  2.480180e+01    9.002284e-01
  2.491293e+01    8.839571e-01
  2.502406e+01    8.976301e-01
  2.513519e+01    8.973674e-01
  2.524632e+01    9.330353e-01
  2.535745e+01    9.762734e-01
  2.546858e+01    1.032393e+00
  2.557971e+01    1.133401e+00
  2.569083e+01    1.506551e+00
  2.580196e+01    2.783124e+00
  2.591309e+01    6.340920e+00
  2.602422e+01    5.323348e+00
  2.613535e+01    2.113655e+00
  2.624648e+01    1.327789e+00
  2.635761e+01    1.075435e+00
  2.646874e+01    9.872522e-01
  2.657987e+01    9.626536e-01
  2.669100e+01    9.521845e-01
  2.680212e+01    1.006404e+00
  2.691325e+01    1.006090e+00
  2.702438e+01    1.133740e+00
  2.713551e+01    1.750962e+00
  2.724664e+01    2.076499e+00
  2.735777e+01    1.275077e+00
  2.746890e+01    1.005588e+00
  2.758003e+01    9.424572e-01
  2.769116e+01    9.101337e-01
  2.780229e+01    8.892173e-01
  2.791342e+01    8.923725e-01
  2.802454e+01    8.742356e-01
  2.813567e+01    8.500636e-01
  2.824680e+01    8.509218e-01
  2.835793e+01    8.229454e-01
  2.846906e+01    8.134219e-01
  2.858019e+01    8.147272e-01
  2.869132e+01    8.494080e-01
  2.880245e+01    8.355955e-01
  2.891358e+01    8.280761e-01
  2.902471e+01    8.172227e-01
  2.913583e+01    8.272339e-01
  2.924696e+01    7.894198e-01
  2.935809e+01    8.141082e-01
  2.946922e+01    8.168403e-01
  2.958035e+01    7.988760e-01
  2.969148e+01    7.967139e-01
  2.980261e+01    8.089022e-01
  2.991374e+01    7.974045e-01
  3.002487e+01    7.863890e-01
  3.013600e+01    7.819816e-01
  3.024712e+01    7.659161e-01
  3.035825e+01    7.867714e-01
  3.046938e+01    7.698500e-01
  3.058051e+01    7.722488e-01
  3.069164e+01    7.911560e-01
  3.080277e+01    7.827331e-01
  3.091390e+01    7.924680e-01
  3.102503e+01    8.036628e-01
  3.113616e+01    7.856910e-01
  3.124729e+01    7.733195e-01
  3.135841e+01    7.995684e-01
  3.146954e+01    8.064770e-01
  3.158067e+01    8.800606e-01
  3.169180e+01    9.667151e-01
  3.180293e+01    1.433498e+00
  3.191406e+01    2.066042e+00
  3.202519e+01    1.297379e+00
  3.213632e+01    9.302630e-01
  3.224745e+01    8.337166e-01
  3.235858e+01    7.817163e-01
  3.246970e+01    7.791911e-01
  3.254908e+01    7.519239e-01