File: XRD/Reaction conditions/2024-07-27_003_Ru-CGO-ex_Reaction_dwell_000023_data_000154.dat
# == pyFAI calibration ==
# Distance Sample to Detector: 0.4 m
# PONI: 9.750e-02, 1.135e-01 m
# Rotations: -0.000175 0.000000 -0.000000 rad
#
# == Fit2d calibration ==
# Distance Sample-beamCenter: 400.000 mm
# Center: x=1514.000, y=1300.000 pix
# Tilt: 0.010 deg  TiltPlanRot: 0.010 deg
#
# Detector Detector	 Spline= None	 PixelSize= 7.500e-05, 7.500e-05 m
#    Detector has a mask: False
#    Detector has a dark current: False
#    detector has a flat field: False
#
# Wavelength: 6.888e-11 m
# Mask applied: user provided
# Dark current applied: False
# Flat field applied: False
# Polarization factor: 0.99
# Normalization factor: 1.0
# --> /home/myspot/data/2024_07_Rosario/Ru-CGO-ex/2024-07-27_003_Ru-CGO-ex_Reaction_dwell_000023_data_000154.dat
#       q_nm^-1             I
  2.003187e-02    0.000000e+00
  1.311609e-01    4.702913e-02
  2.422899e-01    5.760974e-02
  3.534189e-01    4.026948e-02
  4.645479e-01    5.793870e-02
  5.756770e-01    3.397173e-02
  6.868060e-01    4.185543e-02
  7.979350e-01    1.131176e-01
  9.090640e-01    6.429245e-01
  1.020193e+00    1.316512e+00
  1.131322e+00    1.614853e+00
  1.242451e+00    2.319530e+00
  1.353580e+00    2.748044e+00
  1.464709e+00    3.015054e+00
  1.575838e+00    3.077176e+00
  1.686967e+00    3.278762e+00
  1.798096e+00    3.028428e+00
  1.909225e+00    3.099151e+00
  2.020354e+00    3.102531e+00
  2.131483e+00    3.158215e+00
  2.242612e+00    3.116282e+00
  2.353741e+00    3.181809e+00
  2.464870e+00    3.258705e+00
  2.575999e+00    3.184816e+00
  2.687128e+00    3.306922e+00
  2.798257e+00    3.369031e+00
  2.909386e+00    3.288924e+00
  3.020515e+00    3.419118e+00
  3.131644e+00    3.385381e+00
  3.242773e+00    3.414161e+00
  3.353902e+00    3.446297e+00
  3.465031e+00    3.466478e+00
  3.576160e+00    3.385389e+00
  3.687289e+00    3.429493e+00
  3.798418e+00    3.523591e+00
  3.909547e+00    3.553899e+00
  4.020676e+00    3.484288e+00
  4.131806e+00    3.556533e+00
  4.242935e+00    3.616641e+00
  4.354064e+00    3.515981e+00
  4.465193e+00    3.696289e+00
  4.576322e+00    3.528681e+00
  4.687451e+00    3.643813e+00
  4.798580e+00    3.662969e+00
  4.909709e+00    3.694533e+00
  5.020838e+00    3.529982e+00
  5.131967e+00    3.632028e+00
  5.243096e+00    3.580625e+00
  5.354225e+00    3.611134e+00
  5.465354e+00    3.616948e+00
  5.576483e+00    3.590571e+00
  5.687612e+00    3.539151e+00
  5.798741e+00    3.459626e+00
  5.909870e+00    3.524404e+00
  6.020999e+00    3.558963e+00
  6.132128e+00    3.574426e+00
  6.243257e+00    3.608081e+00
  6.354386e+00    3.532443e+00
  6.465515e+00    3.572134e+00
  6.576644e+00    3.536446e+00
  6.687773e+00    3.498607e+00
  6.798902e+00    3.538037e+00
  6.910031e+00    3.434376e+00
  7.021160e+00    3.500315e+00
  7.132289e+00    3.448737e+00
  7.243418e+00    3.530249e+00
  7.354547e+00    3.556645e+00
  7.465676e+00    3.419804e+00
  7.576805e+00    3.450184e+00
  7.687934e+00    3.421121e+00
  7.799063e+00    3.399678e+00
  7.910192e+00    3.419122e+00
  8.021321e+00    3.393790e+00
  8.132450e+00    3.478437e+00
  8.243579e+00    3.437887e+00
  8.354708e+00    3.313612e+00
  8.465837e+00    3.476426e+00
  8.576966e+00    3.445630e+00
  8.688095e+00    3.346612e+00
  8.799224e+00    3.256681e+00
  8.910353e+00    3.319886e+00
  9.021482e+00    3.293332e+00
  9.132611e+00    3.295718e+00
  9.243740e+00    3.182234e+00
  9.354869e+00    3.290840e+00
  9.465998e+00    3.219495e+00
  9.577127e+00    3.271842e+00
  9.688256e+00    3.166726e+00
  9.799385e+00    3.146784e+00
  9.910514e+00    3.152798e+00
  1.002164e+01    3.117076e+00
  1.013277e+01    3.050375e+00
  1.024390e+01    3.017237e+00
  1.035503e+01    3.003052e+00
  1.046616e+01    3.021231e+00
  1.057729e+01    2.952584e+00
  1.068842e+01    2.953185e+00
  1.079955e+01    2.970028e+00
  1.091068e+01    2.894416e+00
  1.102180e+01    2.853169e+00
  1.113293e+01    2.877713e+00
  1.124406e+01    2.823127e+00
  1.135519e+01    2.817061e+00
  1.146632e+01    2.805318e+00
  1.157745e+01    2.750484e+00
  1.168858e+01    2.707404e+00
  1.179971e+01    2.745315e+00
  1.191084e+01    2.687224e+00
  1.202197e+01    2.672345e+00
  1.213309e+01    2.681572e+00
  1.224422e+01    2.691127e+00
  1.235535e+01    2.741425e+00
  1.246648e+01    2.705912e+00
  1.257761e+01    2.677108e+00
  1.268874e+01    2.804414e+00
  1.279987e+01    2.993637e+00
  1.291100e+01    3.680138e+00
  1.302213e+01    6.669731e+00
  1.313326e+01    1.457796e+01
  1.324438e+01    1.067118e+01
  1.335551e+01    4.354840e+00
  1.346664e+01    3.146539e+00
  1.357777e+01    2.720053e+00
  1.368890e+01    2.537293e+00
  1.380003e+01    2.539720e+00
  1.391116e+01    2.429380e+00
  1.402229e+01    2.354456e+00
  1.413342e+01    2.364413e+00
  1.424455e+01    2.322251e+00
  1.435568e+01    2.212048e+00
  1.446680e+01    2.231253e+00
  1.457793e+01    2.232278e+00
  1.468906e+01    2.189388e+00
  1.480019e+01    2.212891e+00
  1.491132e+01    2.218807e+00
  1.502245e+01    2.515323e+00
  1.513358e+01    3.810758e+00
  1.524471e+01    5.609609e+00
  1.535584e+01    3.717779e+00
  1.546697e+01    2.417455e+00
  1.557809e+01    2.129750e+00
  1.568922e+01    2.029356e+00
  1.580035e+01    1.992916e+00
  1.591148e+01    1.897561e+00
  1.602261e+01    1.863895e+00
  1.613374e+01    1.868469e+00
  1.624487e+01    1.801482e+00
  1.635600e+01    1.770306e+00
  1.646713e+01    1.755428e+00
  1.657826e+01    1.768540e+00
  1.668938e+01    1.720659e+00
  1.680051e+01    1.667021e+00
  1.691164e+01    1.666103e+00
  1.702277e+01    1.666004e+00
  1.713390e+01    1.659548e+00
  1.724503e+01    1.643031e+00
  1.735616e+01    1.588216e+00
  1.746729e+01    1.601031e+00
  1.757842e+01    1.583697e+00
  1.768955e+01    1.548505e+00
  1.780067e+01    1.533144e+00
  1.791180e+01    1.555847e+00
  1.802293e+01    1.549439e+00
  1.813406e+01    1.511682e+00
  1.824519e+01    1.483809e+00
  1.835632e+01    1.481855e+00
  1.846745e+01    1.470932e+00
  1.857858e+01    1.435461e+00
  1.868971e+01    1.383397e+00
  1.880084e+01    1.407562e+00
  1.891196e+01    1.380736e+00
  1.902309e+01    1.384992e+00
  1.913422e+01    1.394507e+00
  1.924535e+01    1.364231e+00
  1.935648e+01    1.336030e+00
  1.946761e+01    1.335785e+00
  1.957874e+01    1.331168e+00
  1.968987e+01    1.305537e+00
  1.980100e+01    1.304088e+00
  1.991213e+01    1.290433e+00
  2.002325e+01    1.266059e+00
  2.013438e+01    1.306711e+00
  2.024551e+01    1.268489e+00
  2.035664e+01    1.257091e+00
  2.046777e+01    1.248912e+00
  2.057890e+01    1.224291e+00
  2.069003e+01    1.239610e+00
  2.080116e+01    1.214764e+00
  2.091229e+01    1.225048e+00
  2.102342e+01    1.221135e+00
  2.113455e+01    1.245964e+00
  2.124567e+01    1.240723e+00
  2.135680e+01    1.288878e+00
  2.146793e+01    1.364955e+00
  2.157906e+01    1.585208e+00
  2.169019e+01    2.490019e+00
  2.180132e+01    5.774943e+00
  2.191245e+01    8.721449e+00
  2.202358e+01    3.622303e+00
  2.213471e+01    1.842467e+00
  2.224584e+01    1.394369e+00
  2.235696e+01    1.235627e+00
  2.246809e+01    1.158844e+00
  2.257922e+01    1.110213e+00
  2.269035e+01    1.066775e+00
  2.280148e+01    1.050224e+00
  2.291261e+01    1.015681e+00
  2.302374e+01    1.012124e+00
  2.313487e+01    1.001740e+00
  2.324600e+01    9.837404e-01
  2.335713e+01    9.702731e-01
  2.346825e+01    9.585510e-01
  2.357938e+01    9.672061e-01
  2.369051e+01    9.343883e-01
  2.380164e+01    9.366114e-01
  2.391277e+01    9.280944e-01
  2.402390e+01    9.006619e-01
  2.413503e+01    8.857501e-01
  2.424616e+01    8.709326e-01
  2.435729e+01    8.912618e-01
  2.446842e+01    8.876330e-01
  2.457954e+01    9.006040e-01
  2.469067e+01    8.864507e-01
  2.480180e+01    8.919952e-01
  2.491293e+01    8.869261e-01
  2.502406e+01    9.149236e-01
  2.513519e+01    9.011371e-01
  2.524632e+01    9.498983e-01
  2.535745e+01    9.593540e-01
  2.546858e+01    1.014084e+00
  2.557971e+01    1.152837e+00
  2.569083e+01    1.508450e+00
  2.580196e+01    2.777087e+00
  2.591309e+01    6.284950e+00
  2.602422e+01    5.297792e+00
  2.613535e+01    2.128023e+00
  2.624648e+01    1.347998e+00
  2.635761e+01    1.088876e+00
  2.646874e+01    1.005416e+00
  2.657987e+01    9.751006e-01
  2.669100e+01    9.644180e-01
  2.680212e+01    9.476949e-01
  2.691325e+01    9.962530e-01
  2.702438e+01    1.136547e+00
  2.713551e+01    1.685937e+00
  2.724664e+01    2.068377e+00
  2.735777e+01    1.244496e+00
  2.746890e+01    1.011956e+00
  2.758003e+01    9.234552e-01
  2.769116e+01    8.767534e-01
  2.780229e+01    9.006616e-01
  2.791342e+01    8.710093e-01
  2.802454e+01    8.772807e-01
  2.813567e+01    8.537137e-01
  2.824680e+01    8.380615e-01
  2.835793e+01    8.517690e-01
  2.846906e+01    8.216465e-01
  2.858019e+01    8.312923e-01
  2.869132e+01    8.442255e-01
  2.880245e+01    8.197289e-01
  2.891358e+01    8.300447e-01
  2.902471e+01    8.423857e-01
  2.913583e+01    8.129773e-01
  2.924696e+01    8.006280e-01
  2.935809e+01    8.091683e-01
  2.946922e+01    8.076211e-01
  2.958035e+01    8.192649e-01
  2.969148e+01    8.302544e-01
  2.980261e+01    7.849790e-01
  2.991374e+01    7.849950e-01
  3.002487e+01    8.095939e-01
  3.013600e+01    7.857134e-01
  3.024712e+01    7.870520e-01
  3.035825e+01    7.705622e-01
  3.046938e+01    7.890166e-01
  3.058051e+01    7.973409e-01
  3.069164e+01    7.639090e-01
  3.080277e+01    7.947272e-01
  3.091390e+01    7.850983e-01
  3.102503e+01    7.606046e-01
  3.113616e+01    7.746321e-01
  3.124729e+01    8.033906e-01
  3.135841e+01    8.068045e-01
  3.146954e+01    7.962838e-01
  3.158067e+01    8.331571e-01
  3.169180e+01    9.718243e-01
  3.180293e+01    1.421449e+00
  3.191406e+01    2.085592e+00
  3.202519e+01    1.273450e+00
  3.213632e+01    9.545780e-01
  3.224745e+01    8.365367e-01
  3.235858e+01    7.961782e-01
  3.246970e+01    7.560003e-01
  3.254908e+01    7.829193e-01