File: XRD/Reaction conditions/2024-07-27_003_Ru-CGO-ex_Reaction_dwell_000023_data_000028.dat
# == pyFAI calibration ==
# Distance Sample to Detector: 0.4 m
# PONI: 9.750e-02, 1.135e-01 m
# Rotations: -0.000175 0.000000 -0.000000 rad
#
# == Fit2d calibration ==
# Distance Sample-beamCenter: 400.000 mm
# Center: x=1514.000, y=1300.000 pix
# Tilt: 0.010 deg  TiltPlanRot: 0.010 deg
#
# Detector Detector	 Spline= None	 PixelSize= 7.500e-05, 7.500e-05 m
#    Detector has a mask: False
#    Detector has a dark current: False
#    detector has a flat field: False
#
# Wavelength: 6.888e-11 m
# Mask applied: user provided
# Dark current applied: False
# Flat field applied: False
# Polarization factor: 0.99
# Normalization factor: 1.0
# --> /home/myspot/data/2024_07_Rosario/Ru-CGO-ex/2024-07-27_003_Ru-CGO-ex_Reaction_dwell_000023_data_000028.dat
#       q_nm^-1             I
  2.003187e-02    0.000000e+00
  1.311609e-01    5.190227e-02
  2.422899e-01    3.333206e-02
  3.534189e-01    7.467145e-02
  4.645479e-01    2.389196e-02
  5.756770e-01    3.013834e-02
  6.868060e-01    3.738857e-02
  7.979350e-01    1.600483e-01
  9.090640e-01    6.718038e-01
  1.020193e+00    1.191131e+00
  1.131322e+00    1.691008e+00
  1.242451e+00    2.463519e+00
  1.353580e+00    2.752495e+00
  1.464709e+00    3.156043e+00
  1.575838e+00    3.164082e+00
  1.686967e+00    2.995159e+00
  1.798096e+00    3.160562e+00
  1.909225e+00    3.089446e+00
  2.020354e+00    3.015085e+00
  2.131483e+00    3.166631e+00
  2.242612e+00    3.053719e+00
  2.353741e+00    3.210952e+00
  2.464870e+00    3.232081e+00
  2.575999e+00    3.298354e+00
  2.687128e+00    3.221842e+00
  2.798257e+00    3.327010e+00
  2.909386e+00    3.232648e+00
  3.020515e+00    3.344383e+00
  3.131644e+00    3.346111e+00
  3.242773e+00    3.429178e+00
  3.353902e+00    3.403558e+00
  3.465031e+00    3.456625e+00
  3.576160e+00    3.541683e+00
  3.687289e+00    3.473305e+00
  3.798418e+00    3.498122e+00
  3.909547e+00    3.498869e+00
  4.020676e+00    3.559532e+00
  4.131806e+00    3.494111e+00
  4.242935e+00    3.664447e+00
  4.354064e+00    3.506740e+00
  4.465193e+00    3.537764e+00
  4.576322e+00    3.612307e+00
  4.687451e+00    3.706037e+00
  4.798580e+00    3.646813e+00
  4.909709e+00    3.729578e+00
  5.020838e+00    3.672380e+00
  5.131967e+00    3.749133e+00
  5.243096e+00    3.697384e+00
  5.354225e+00    3.590303e+00
  5.465354e+00    3.510295e+00
  5.576483e+00    3.686415e+00
  5.687612e+00    3.627609e+00
  5.798741e+00    3.609839e+00
  5.909870e+00    3.559221e+00
  6.020999e+00    3.595613e+00
  6.132128e+00    3.608952e+00
  6.243257e+00    3.547593e+00
  6.354386e+00    3.573723e+00
  6.465515e+00    3.530424e+00
  6.576644e+00    3.538527e+00
  6.687773e+00    3.612568e+00
  6.798902e+00    3.564450e+00
  6.910031e+00    3.563902e+00
  7.021160e+00    3.526780e+00
  7.132289e+00    3.564703e+00
  7.243418e+00    3.446231e+00
  7.354547e+00    3.595265e+00
  7.465676e+00    3.475860e+00
  7.576805e+00    3.394856e+00
  7.687934e+00    3.481126e+00
  7.799063e+00    3.461467e+00
  7.910192e+00    3.564630e+00
  8.021321e+00    3.440331e+00
  8.132450e+00    3.440452e+00
  8.243579e+00    3.481628e+00
  8.354708e+00    3.414963e+00
  8.465837e+00    3.374566e+00
  8.576966e+00    3.344058e+00
  8.688095e+00    3.329727e+00
  8.799224e+00    3.348662e+00
  8.910353e+00    3.325130e+00
  9.021482e+00    3.292046e+00
  9.132611e+00    3.222580e+00
  9.243740e+00    3.281224e+00
  9.354869e+00    3.195167e+00
  9.465998e+00    3.226533e+00
  9.577127e+00    3.213099e+00
  9.688256e+00    3.158733e+00
  9.799385e+00    3.181943e+00
  9.910514e+00    3.194471e+00
  1.002164e+01    3.148691e+00
  1.013277e+01    3.062746e+00
  1.024390e+01    3.100265e+00
  1.035503e+01    3.061524e+00
  1.046616e+01    3.002426e+00
  1.057729e+01    3.021737e+00
  1.068842e+01    2.993413e+00
  1.079955e+01    2.996152e+00
  1.091068e+01    2.942188e+00
  1.102180e+01    2.928935e+00
  1.113293e+01    2.949757e+00
  1.124406e+01    2.863580e+00
  1.135519e+01    2.843127e+00
  1.146632e+01    2.829425e+00
  1.157745e+01    2.827396e+00
  1.168858e+01    2.740575e+00
  1.179971e+01    2.819971e+00
  1.191084e+01    2.749068e+00
  1.202197e+01    2.713420e+00
  1.213309e+01    2.719334e+00
  1.224422e+01    2.678633e+00
  1.235535e+01    2.735168e+00
  1.246648e+01    2.726500e+00
  1.257761e+01    2.767509e+00
  1.268874e+01    2.857189e+00
  1.279987e+01    2.991041e+00
  1.291100e+01    3.700184e+00
  1.302213e+01    6.723155e+00
  1.313326e+01    1.488029e+01
  1.324438e+01    1.068149e+01
  1.335551e+01    4.522305e+00
  1.346664e+01    3.141847e+00
  1.357777e+01    2.746320e+00
  1.368890e+01    2.595375e+00
  1.380003e+01    2.507944e+00
  1.391116e+01    2.424148e+00
  1.402229e+01    2.370871e+00
  1.413342e+01    2.302886e+00
  1.424455e+01    2.290210e+00
  1.435568e+01    2.262028e+00
  1.446680e+01    2.245886e+00
  1.457793e+01    2.224587e+00
  1.468906e+01    2.266723e+00
  1.480019e+01    2.189598e+00
  1.491132e+01    2.314979e+00
  1.502245e+01    2.494770e+00
  1.513358e+01    3.786119e+00
  1.524471e+01    5.688771e+00
  1.535584e+01    3.775391e+00
  1.546697e+01    2.469052e+00
  1.557809e+01    2.142824e+00
  1.568922e+01    1.974490e+00
  1.580035e+01    1.978625e+00
  1.591148e+01    1.933276e+00
  1.602261e+01    1.876765e+00
  1.613374e+01    1.840345e+00
  1.624487e+01    1.854783e+00
  1.635600e+01    1.794854e+00
  1.646713e+01    1.746577e+00
  1.657826e+01    1.691965e+00
  1.668938e+01    1.724586e+00
  1.680051e+01    1.682802e+00
  1.691164e+01    1.647658e+00
  1.702277e+01    1.691843e+00
  1.713390e+01    1.661868e+00
  1.724503e+01    1.619718e+00
  1.735616e+01    1.604511e+00
  1.746729e+01    1.613923e+00
  1.757842e+01    1.563573e+00
  1.768955e+01    1.547895e+00
  1.780067e+01    1.573768e+00
  1.791180e+01    1.548148e+00
  1.802293e+01    1.522161e+00
  1.813406e+01    1.508348e+00
  1.824519e+01    1.509433e+00
  1.835632e+01    1.475008e+00
  1.846745e+01    1.464589e+00
  1.857858e+01    1.469178e+00
  1.868971e+01    1.419344e+00
  1.880084e+01    1.383748e+00
  1.891196e+01    1.413035e+00
  1.902309e+01    1.399228e+00
  1.913422e+01    1.387912e+00
  1.924535e+01    1.395817e+00
  1.935648e+01    1.366511e+00
  1.946761e+01    1.361515e+00
  1.957874e+01    1.337950e+00
  1.968987e+01    1.313116e+00
  1.980100e+01    1.297866e+00
  1.991213e+01    1.285232e+00
  2.002325e+01    1.278390e+00
  2.013438e+01    1.261268e+00
  2.024551e+01    1.288036e+00
  2.035664e+01    1.270517e+00
  2.046777e+01    1.280379e+00
  2.057890e+01    1.217913e+00
  2.069003e+01    1.252737e+00
  2.080116e+01    1.243008e+00
  2.091229e+01    1.224944e+00
  2.102342e+01    1.253587e+00
  2.113455e+01    1.235450e+00
  2.124567e+01    1.257215e+00
  2.135680e+01    1.282935e+00
  2.146793e+01    1.416147e+00
  2.157906e+01    1.615981e+00
  2.169019e+01    2.533908e+00
  2.180132e+01    5.899786e+00
  2.191245e+01    8.704540e+00
  2.202358e+01    3.667778e+00
  2.213471e+01    1.866984e+00
  2.224584e+01    1.429192e+00
  2.235696e+01    1.254131e+00
  2.246809e+01    1.163785e+00
  2.257922e+01    1.125619e+00
  2.269035e+01    1.076015e+00
  2.280148e+01    1.056927e+00
  2.291261e+01    1.056687e+00
  2.302374e+01    1.017197e+00
  2.313487e+01    1.013393e+00
  2.324600e+01    9.963982e-01
  2.335713e+01    9.754935e-01
  2.346825e+01    9.971054e-01
  2.357938e+01    9.651365e-01
  2.369051e+01    9.450096e-01
  2.380164e+01    9.140685e-01
  2.391277e+01    9.121934e-01
  2.402390e+01    9.006573e-01
  2.413503e+01    8.684279e-01
  2.424616e+01    8.616116e-01
  2.435729e+01    9.063420e-01
  2.446842e+01    8.907166e-01
  2.457954e+01    9.024754e-01
  2.469067e+01    8.886239e-01
  2.480180e+01    8.866501e-01
  2.491293e+01    9.092747e-01
  2.502406e+01    9.011401e-01
  2.513519e+01    9.169379e-01
  2.524632e+01    9.341592e-01
  2.535745e+01    9.755505e-01
  2.546858e+01    1.061947e+00
  2.557971e+01    1.162692e+00
  2.569083e+01    1.505137e+00
  2.580196e+01    2.824017e+00
  2.591309e+01    6.369446e+00
  2.602422e+01    5.359237e+00
  2.613535e+01    2.147509e+00
  2.624648e+01    1.356363e+00
  2.635761e+01    1.122195e+00
  2.646874e+01    1.033864e+00
  2.657987e+01    1.001509e+00
  2.669100e+01    9.711800e-01
  2.680212e+01    9.862272e-01
  2.691325e+01    1.004352e+00
  2.702438e+01    1.149648e+00
  2.713551e+01    1.701416e+00
  2.724664e+01    2.139827e+00
  2.735777e+01    1.263370e+00
  2.746890e+01    1.022601e+00
  2.758003e+01    9.420033e-01
  2.769116e+01    8.926222e-01
  2.780229e+01    8.906219e-01
  2.791342e+01    8.784959e-01
  2.802454e+01    8.729304e-01
  2.813567e+01    8.504064e-01
  2.824680e+01    8.599321e-01
  2.835793e+01    8.229988e-01
  2.846906e+01    8.605079e-01
  2.858019e+01    8.556978e-01
  2.869132e+01    8.421738e-01
  2.880245e+01    8.282986e-01
  2.891358e+01    8.148094e-01
  2.902471e+01    8.349153e-01
  2.913583e+01    8.091369e-01
  2.924696e+01    8.109776e-01
  2.935809e+01    8.077446e-01
  2.946922e+01    8.118862e-01
  2.958035e+01    7.947481e-01
  2.969148e+01    8.089177e-01
  2.980261e+01    7.980549e-01
  2.991374e+01    7.939631e-01
  3.002487e+01    8.303897e-01
  3.013600e+01    7.760254e-01
  3.024712e+01    7.996529e-01
  3.035825e+01    7.901497e-01
  3.046938e+01    7.812273e-01
  3.058051e+01    7.837963e-01
  3.069164e+01    7.809035e-01
  3.080277e+01    8.064971e-01
  3.091390e+01    7.841690e-01
  3.102503e+01    7.729521e-01
  3.113616e+01    7.877095e-01
  3.124729e+01    8.085295e-01
  3.135841e+01    8.012859e-01
  3.146954e+01    8.258674e-01
  3.158067e+01    8.647994e-01
  3.169180e+01    9.800769e-01
  3.180293e+01    1.457827e+00
  3.191406e+01    2.085379e+00
  3.202519e+01    1.331808e+00
  3.213632e+01    9.475924e-01
  3.224745e+01    8.534554e-01
  3.235858e+01    8.007531e-01
  3.246970e+01    7.974560e-01
  3.254908e+01    7.711737e-01