File: XRD/Reaction conditions/2024-07-27_003_Ru-CGO-ex_Reaction_dwell_000023_data_000037.dat
# == pyFAI calibration ==
# Distance Sample to Detector: 0.4 m
# PONI: 9.750e-02, 1.135e-01 m
# Rotations: -0.000175 0.000000 -0.000000 rad
#
# == Fit2d calibration ==
# Distance Sample-beamCenter: 400.000 mm
# Center: x=1514.000, y=1300.000 pix
# Tilt: 0.010 deg  TiltPlanRot: 0.010 deg
#
# Detector Detector	 Spline= None	 PixelSize= 7.500e-05, 7.500e-05 m
#    Detector has a mask: False
#    Detector has a dark current: False
#    detector has a flat field: False
#
# Wavelength: 6.888e-11 m
# Mask applied: user provided
# Dark current applied: False
# Flat field applied: False
# Polarization factor: 0.99
# Normalization factor: 1.0
# --> /home/myspot/data/2024_07_Rosario/Ru-CGO-ex/2024-07-27_003_Ru-CGO-ex_Reaction_dwell_000023_data_000037.dat
#       q_nm^-1             I
  2.003187e-02    7.711996e-02
  1.311609e-01    7.543968e-02
  2.422899e-01    5.987814e-02
  3.534189e-01    3.553559e-02
  4.645479e-01    2.968537e-02
  5.756770e-01    4.873937e-02
  6.868060e-01    3.648822e-02
  7.979350e-01    1.345348e-01
  9.090640e-01    6.274307e-01
  1.020193e+00    1.366747e+00
  1.131322e+00    1.592496e+00
  1.242451e+00    2.533104e+00
  1.353580e+00    2.803234e+00
  1.464709e+00    3.035320e+00
  1.575838e+00    3.196050e+00
  1.686967e+00    3.232853e+00
  1.798096e+00    3.113442e+00
  1.909225e+00    3.089215e+00
  2.020354e+00    3.083053e+00
  2.131483e+00    3.119157e+00
  2.242612e+00    3.099926e+00
  2.353741e+00    3.071511e+00
  2.464870e+00    3.232036e+00
  2.575999e+00    3.319725e+00
  2.687128e+00    3.208180e+00
  2.798257e+00    3.279429e+00
  2.909386e+00    3.386902e+00
  3.020515e+00    3.303889e+00
  3.131644e+00    3.382071e+00
  3.242773e+00    3.437551e+00
  3.353902e+00    3.419304e+00
  3.465031e+00    3.467720e+00
  3.576160e+00    3.467723e+00
  3.687289e+00    3.481886e+00
  3.798418e+00    3.481817e+00
  3.909547e+00    3.514377e+00
  4.020676e+00    3.561134e+00
  4.131806e+00    3.649274e+00
  4.242935e+00    3.590904e+00
  4.354064e+00    3.591455e+00
  4.465193e+00    3.711789e+00
  4.576322e+00    3.657807e+00
  4.687451e+00    3.639972e+00
  4.798580e+00    3.612363e+00
  4.909709e+00    3.650560e+00
  5.020838e+00    3.654649e+00
  5.131967e+00    3.804463e+00
  5.243096e+00    3.755974e+00
  5.354225e+00    3.680025e+00
  5.465354e+00    3.608125e+00
  5.576483e+00    3.628537e+00
  5.687612e+00    3.603947e+00
  5.798741e+00    3.569756e+00
  5.909870e+00    3.549368e+00
  6.020999e+00    3.577252e+00
  6.132128e+00    3.552443e+00
  6.243257e+00    3.684539e+00
  6.354386e+00    3.600179e+00
  6.465515e+00    3.645297e+00
  6.576644e+00    3.544795e+00
  6.687773e+00    3.588459e+00
  6.798902e+00    3.516669e+00
  6.910031e+00    3.558711e+00
  7.021160e+00    3.540360e+00
  7.132289e+00    3.464797e+00
  7.243418e+00    3.509419e+00
  7.354547e+00    3.431491e+00
  7.465676e+00    3.544246e+00
  7.576805e+00    3.482358e+00
  7.687934e+00    3.441402e+00
  7.799063e+00    3.441482e+00
  7.910192e+00    3.462408e+00
  8.021321e+00    3.423104e+00
  8.132450e+00    3.492594e+00
  8.243579e+00    3.402334e+00
  8.354708e+00    3.440461e+00
  8.465837e+00    3.417696e+00
  8.576966e+00    3.389313e+00
  8.688095e+00    3.397408e+00
  8.799224e+00    3.343805e+00
  8.910353e+00    3.287410e+00
  9.021482e+00    3.310281e+00
  9.132611e+00    3.329257e+00
  9.243740e+00    3.286963e+00
  9.354869e+00    3.217263e+00
  9.465998e+00    3.167662e+00
  9.577127e+00    3.247820e+00
  9.688256e+00    3.164871e+00
  9.799385e+00    3.186347e+00
  9.910514e+00    3.104172e+00
  1.002164e+01    3.096027e+00
  1.013277e+01    3.090797e+00
  1.024390e+01    3.055795e+00
  1.035503e+01    3.082697e+00
  1.046616e+01    3.006648e+00
  1.057729e+01    2.999032e+00
  1.068842e+01    3.007766e+00
  1.079955e+01    3.011312e+00
  1.091068e+01    2.997144e+00
  1.102180e+01    2.936279e+00
  1.113293e+01    2.807896e+00
  1.124406e+01    2.833722e+00
  1.135519e+01    2.826206e+00
  1.146632e+01    2.825112e+00
  1.157745e+01    2.811072e+00
  1.168858e+01    2.796857e+00
  1.179971e+01    2.767050e+00
  1.191084e+01    2.764964e+00
  1.202197e+01    2.751418e+00
  1.213309e+01    2.709945e+00
  1.224422e+01    2.699140e+00
  1.235535e+01    2.689413e+00
  1.246648e+01    2.698839e+00
  1.257761e+01    2.741169e+00
  1.268874e+01    2.783028e+00
  1.279987e+01    3.066899e+00
  1.291100e+01    3.722184e+00
  1.302213e+01    6.766053e+00
  1.313326e+01    1.496153e+01
  1.324438e+01    1.082551e+01
  1.335551e+01    4.444039e+00
  1.346664e+01    3.119648e+00
  1.357777e+01    2.732617e+00
  1.368890e+01    2.574484e+00
  1.380003e+01    2.502429e+00
  1.391116e+01    2.429914e+00
  1.402229e+01    2.347166e+00
  1.413342e+01    2.300448e+00
  1.424455e+01    2.284800e+00
  1.435568e+01    2.262319e+00
  1.446680e+01    2.268751e+00
  1.457793e+01    2.212227e+00
  1.468906e+01    2.182027e+00
  1.480019e+01    2.177488e+00
  1.491132e+01    2.241813e+00
  1.502245e+01    2.546183e+00
  1.513358e+01    3.870339e+00
  1.524471e+01    5.781271e+00
  1.535584e+01    3.806946e+00
  1.546697e+01    2.490534e+00
  1.557809e+01    2.129912e+00
  1.568922e+01    2.039546e+00
  1.580035e+01    1.899689e+00
  1.591148e+01    1.937451e+00
  1.602261e+01    1.909432e+00
  1.613374e+01    1.874593e+00
  1.624487e+01    1.828456e+00
  1.635600e+01    1.794410e+00
  1.646713e+01    1.782043e+00
  1.657826e+01    1.776313e+00
  1.668938e+01    1.749680e+00
  1.680051e+01    1.712881e+00
  1.691164e+01    1.722479e+00
  1.702277e+01    1.655177e+00
  1.713390e+01    1.641013e+00
  1.724503e+01    1.629512e+00
  1.735616e+01    1.597096e+00
  1.746729e+01    1.606480e+00
  1.757842e+01    1.588158e+00
  1.768955e+01    1.576293e+00
  1.780067e+01    1.553666e+00
  1.791180e+01    1.541952e+00
  1.802293e+01    1.544278e+00
  1.813406e+01    1.514094e+00
  1.824519e+01    1.496873e+00
  1.835632e+01    1.474886e+00
  1.846745e+01    1.413202e+00
  1.857858e+01    1.450190e+00
  1.868971e+01    1.449351e+00
  1.880084e+01    1.409659e+00
  1.891196e+01    1.393636e+00
  1.902309e+01    1.385260e+00
  1.913422e+01    1.381674e+00
  1.924535e+01    1.346833e+00
  1.935648e+01    1.371812e+00
  1.946761e+01    1.375589e+00
  1.957874e+01    1.336223e+00
  1.968987e+01    1.293857e+00
  1.980100e+01    1.306871e+00
  1.991213e+01    1.292082e+00
  2.002325e+01    1.280712e+00
  2.013438e+01    1.268338e+00
  2.024551e+01    1.280089e+00
  2.035664e+01    1.295549e+00
  2.046777e+01    1.268244e+00
  2.057890e+01    1.240212e+00
  2.069003e+01    1.250222e+00
  2.080116e+01    1.254521e+00
  2.091229e+01    1.218149e+00
  2.102342e+01    1.228092e+00
  2.113455e+01    1.253880e+00
  2.124567e+01    1.261149e+00
  2.135680e+01    1.297879e+00
  2.146793e+01    1.383443e+00
  2.157906e+01    1.638025e+00
  2.169019e+01    2.487412e+00
  2.180132e+01    5.875411e+00
  2.191245e+01    8.844040e+00
  2.202358e+01    3.665586e+00
  2.213471e+01    1.903805e+00
  2.224584e+01    1.449647e+00
  2.235696e+01    1.241435e+00
  2.246809e+01    1.169457e+00
  2.257922e+01    1.117867e+00
  2.269035e+01    1.076796e+00
  2.280148e+01    1.065943e+00
  2.291261e+01    1.026777e+00
  2.302374e+01    1.037243e+00
  2.313487e+01    1.014666e+00
  2.324600e+01    9.987236e-01
  2.335713e+01    9.748253e-01
  2.346825e+01    9.700031e-01
  2.357938e+01    9.712757e-01
  2.369051e+01    9.478474e-01
  2.380164e+01    9.159137e-01
  2.391277e+01    9.176103e-01
  2.402390e+01    8.880178e-01
  2.413503e+01    8.911540e-01
  2.424616e+01    9.054524e-01
  2.435729e+01    8.921105e-01
  2.446842e+01    9.079040e-01
  2.457954e+01    8.976233e-01
  2.469067e+01    8.922080e-01
  2.480180e+01    8.877193e-01
  2.491293e+01    8.923776e-01
  2.502406e+01    8.952770e-01
  2.513519e+01    8.985508e-01
  2.524632e+01    9.335278e-01
  2.535745e+01    9.810803e-01
  2.546858e+01    1.027638e+00
  2.557971e+01    1.172727e+00
  2.569083e+01    1.524590e+00
  2.580196e+01    2.823575e+00
  2.591309e+01    6.371166e+00
  2.602422e+01    5.351464e+00
  2.613535e+01    2.188209e+00
  2.624648e+01    1.372293e+00
  2.635761e+01    1.139064e+00
  2.646874e+01    1.033412e+00
  2.657987e+01    1.002649e+00
  2.669100e+01    9.887466e-01
  2.680212e+01    9.728421e-01
  2.691325e+01    1.017455e+00
  2.702438e+01    1.158779e+00
  2.713551e+01    1.736159e+00
  2.724664e+01    2.108440e+00
  2.735777e+01    1.304266e+00
  2.746890e+01    1.024912e+00
  2.758003e+01    9.306840e-01
  2.769116e+01    9.104562e-01
  2.780229e+01    8.847867e-01
  2.791342e+01    8.940244e-01
  2.802454e+01    8.626099e-01
  2.813567e+01    8.761373e-01
  2.824680e+01    8.444916e-01
  2.835793e+01    8.526375e-01
  2.846906e+01    8.488165e-01
  2.858019e+01    8.466671e-01
  2.869132e+01    8.767015e-01
  2.880245e+01    8.431715e-01
  2.891358e+01    8.478788e-01
  2.902471e+01    8.259251e-01
  2.913583e+01    8.389922e-01
  2.924696e+01    8.378412e-01
  2.935809e+01    8.206567e-01
  2.946922e+01    8.280474e-01
  2.958035e+01    7.849847e-01
  2.969148e+01    8.171468e-01
  2.980261e+01    7.842269e-01
  2.991374e+01    7.957737e-01
  3.002487e+01    8.218081e-01
  3.013600e+01    8.015864e-01
  3.024712e+01    7.949693e-01
  3.035825e+01    7.976599e-01
  3.046938e+01    7.748799e-01
  3.058051e+01    7.866060e-01
  3.069164e+01    7.569042e-01
  3.080277e+01    7.889437e-01
  3.091390e+01    7.706592e-01
  3.102503e+01    7.984376e-01
  3.113616e+01    7.949265e-01
  3.124729e+01    7.859293e-01
  3.135841e+01    8.325025e-01
  3.146954e+01    8.241895e-01
  3.158067e+01    8.745228e-01
  3.169180e+01    1.019847e+00
  3.180293e+01    1.451969e+00
  3.191406e+01    2.135086e+00
  3.202519e+01    1.336355e+00
  3.213632e+01    9.356207e-01
  3.224745e+01    8.576040e-01
  3.235858e+01    8.088831e-01
  3.246970e+01    7.934071e-01
  3.254908e+01    7.965475e-01