File: XRD/Reaction conditions/2024-07-27_003_Ru-CGO-ex_Reaction_dwell_000023_data_000031.dat
# == pyFAI calibration ==
# Distance Sample to Detector: 0.4 m
# PONI: 9.750e-02, 1.135e-01 m
# Rotations: -0.000175 0.000000 -0.000000 rad
#
# == Fit2d calibration ==
# Distance Sample-beamCenter: 400.000 mm
# Center: x=1514.000, y=1300.000 pix
# Tilt: 0.010 deg  TiltPlanRot: 0.010 deg
#
# Detector Detector	 Spline= None	 PixelSize= 7.500e-05, 7.500e-05 m
#    Detector has a mask: False
#    Detector has a dark current: False
#    detector has a flat field: False
#
# Wavelength: 6.888e-11 m
# Mask applied: user provided
# Dark current applied: False
# Flat field applied: False
# Polarization factor: 0.99
# Normalization factor: 1.0
# --> /home/myspot/data/2024_07_Rosario/Ru-CGO-ex/2024-07-27_003_Ru-CGO-ex_Reaction_dwell_000023_data_000031.dat
#       q_nm^-1             I
  2.003187e-02    2.849293e-01
  1.311609e-01    7.526444e-02
  2.422899e-01    3.912105e-02
  3.534189e-01    3.164877e-02
  4.645479e-01    7.453263e-02
  5.756770e-01    7.492030e-02
  6.868060e-01    3.399174e-02
  7.979350e-01    1.504530e-01
  9.090640e-01    7.086178e-01
  1.020193e+00    1.263165e+00
  1.131322e+00    1.629649e+00
  1.242451e+00    2.425414e+00
  1.353580e+00    2.753298e+00
  1.464709e+00    3.053057e+00
  1.575838e+00    3.247498e+00
  1.686967e+00    3.258261e+00
  1.798096e+00    3.135085e+00
  1.909225e+00    3.064269e+00
  2.020354e+00    3.122880e+00
  2.131483e+00    3.034950e+00
  2.242612e+00    3.196983e+00
  2.353741e+00    3.207295e+00
  2.464870e+00    3.169883e+00
  2.575999e+00    3.111165e+00
  2.687128e+00    3.210475e+00
  2.798257e+00    3.320148e+00
  2.909386e+00    3.238346e+00
  3.020515e+00    3.376813e+00
  3.131644e+00    3.378312e+00
  3.242773e+00    3.456021e+00
  3.353902e+00    3.432919e+00
  3.465031e+00    3.412761e+00
  3.576160e+00    3.484448e+00
  3.687289e+00    3.422372e+00
  3.798418e+00    3.364954e+00
  3.909547e+00    3.479400e+00
  4.020676e+00    3.545109e+00
  4.131806e+00    3.549617e+00
  4.242935e+00    3.553842e+00
  4.354064e+00    3.597308e+00
  4.465193e+00    3.567281e+00
  4.576322e+00    3.649945e+00
  4.687451e+00    3.642300e+00
  4.798580e+00    3.628762e+00
  4.909709e+00    3.648368e+00
  5.020838e+00    3.713494e+00
  5.131967e+00    3.636710e+00
  5.243096e+00    3.645132e+00
  5.354225e+00    3.575273e+00
  5.465354e+00    3.599830e+00
  5.576483e+00    3.541767e+00
  5.687612e+00    3.602077e+00
  5.798741e+00    3.511373e+00
  5.909870e+00    3.614733e+00
  6.020999e+00    3.714705e+00
  6.132128e+00    3.632179e+00
  6.243257e+00    3.592273e+00
  6.354386e+00    3.505994e+00
  6.465515e+00    3.585397e+00
  6.576644e+00    3.537339e+00
  6.687773e+00    3.583249e+00
  6.798902e+00    3.542861e+00
  6.910031e+00    3.608256e+00
  7.021160e+00    3.557701e+00
  7.132289e+00    3.498552e+00
  7.243418e+00    3.559099e+00
  7.354547e+00    3.498777e+00
  7.465676e+00    3.542505e+00
  7.576805e+00    3.562177e+00
  7.687934e+00    3.422919e+00
  7.799063e+00    3.448090e+00
  7.910192e+00    3.486871e+00
  8.021321e+00    3.412393e+00
  8.132450e+00    3.505029e+00
  8.243579e+00    3.477324e+00
  8.354708e+00    3.400533e+00
  8.465837e+00    3.431679e+00
  8.576966e+00    3.352897e+00
  8.688095e+00    3.381779e+00
  8.799224e+00    3.266816e+00
  8.910353e+00    3.352900e+00
  9.021482e+00    3.210122e+00
  9.132611e+00    3.208248e+00
  9.243740e+00    3.219939e+00
  9.354869e+00    3.295511e+00
  9.465998e+00    3.225382e+00
  9.577127e+00    3.268404e+00
  9.688256e+00    3.231309e+00
  9.799385e+00    3.179906e+00
  9.910514e+00    3.134841e+00
  1.002164e+01    3.102767e+00
  1.013277e+01    3.126642e+00
  1.024390e+01    3.050048e+00
  1.035503e+01    3.104345e+00
  1.046616e+01    2.982566e+00
  1.057729e+01    3.006811e+00
  1.068842e+01    3.006094e+00
  1.079955e+01    2.943245e+00
  1.091068e+01    2.996559e+00
  1.102180e+01    2.940016e+00
  1.113293e+01    2.853518e+00
  1.124406e+01    2.828163e+00
  1.135519e+01    2.875669e+00
  1.146632e+01    2.827722e+00
  1.157745e+01    2.749948e+00
  1.168858e+01    2.745256e+00
  1.179971e+01    2.762069e+00
  1.191084e+01    2.739590e+00
  1.202197e+01    2.768874e+00
  1.213309e+01    2.714463e+00
  1.224422e+01    2.749183e+00
  1.235535e+01    2.703734e+00
  1.246648e+01    2.683505e+00
  1.257761e+01    2.680252e+00
  1.268874e+01    2.808401e+00
  1.279987e+01    3.034924e+00
  1.291100e+01    3.703228e+00
  1.302213e+01    6.743694e+00
  1.313326e+01    1.479384e+01
  1.324438e+01    1.070832e+01
  1.335551e+01    4.491366e+00
  1.346664e+01    3.171422e+00
  1.357777e+01    2.804262e+00
  1.368890e+01    2.637954e+00
  1.380003e+01    2.435735e+00
  1.391116e+01    2.402414e+00
  1.402229e+01    2.336729e+00
  1.413342e+01    2.280782e+00
  1.424455e+01    2.295959e+00
  1.435568e+01    2.248203e+00
  1.446680e+01    2.248013e+00
  1.457793e+01    2.200383e+00
  1.468906e+01    2.229883e+00
  1.480019e+01    2.192271e+00
  1.491132e+01    2.280629e+00
  1.502245e+01    2.485727e+00
  1.513358e+01    3.816389e+00
  1.524471e+01    5.777319e+00
  1.535584e+01    3.786159e+00
  1.546697e+01    2.434695e+00
  1.557809e+01    2.110030e+00
  1.568922e+01    2.022182e+00
  1.580035e+01    1.964503e+00
  1.591148e+01    1.894362e+00
  1.602261e+01    1.869569e+00
  1.613374e+01    1.812981e+00
  1.624487e+01    1.805234e+00
  1.635600e+01    1.786227e+00
  1.646713e+01    1.761171e+00
  1.657826e+01    1.747644e+00
  1.668938e+01    1.760965e+00
  1.680051e+01    1.678957e+00
  1.691164e+01    1.665609e+00
  1.702277e+01    1.666627e+00
  1.713390e+01    1.655038e+00
  1.724503e+01    1.628173e+00
  1.735616e+01    1.593762e+00
  1.746729e+01    1.587303e+00
  1.757842e+01    1.591980e+00
  1.768955e+01    1.527103e+00
  1.780067e+01    1.532560e+00
  1.791180e+01    1.521878e+00
  1.802293e+01    1.535120e+00
  1.813406e+01    1.510816e+00
  1.824519e+01    1.493460e+00
  1.835632e+01    1.459710e+00
  1.846745e+01    1.448895e+00
  1.857858e+01    1.433128e+00
  1.868971e+01    1.415757e+00
  1.880084e+01    1.401773e+00
  1.891196e+01    1.372860e+00
  1.902309e+01    1.389377e+00
  1.913422e+01    1.376268e+00
  1.924535e+01    1.362358e+00
  1.935648e+01    1.341882e+00
  1.946761e+01    1.336386e+00
  1.957874e+01    1.355489e+00
  1.968987e+01    1.350913e+00
  1.980100e+01    1.307731e+00
  1.991213e+01    1.291440e+00
  2.002325e+01    1.283210e+00
  2.013438e+01    1.260032e+00
  2.024551e+01    1.265254e+00
  2.035664e+01    1.240268e+00
  2.046777e+01    1.260672e+00
  2.057890e+01    1.239855e+00
  2.069003e+01    1.247164e+00
  2.080116e+01    1.221567e+00
  2.091229e+01    1.217880e+00
  2.102342e+01    1.188034e+00
  2.113455e+01    1.228948e+00
  2.124567e+01    1.259850e+00
  2.135680e+01    1.283720e+00
  2.146793e+01    1.405213e+00
  2.157906e+01    1.595780e+00
  2.169019e+01    2.505206e+00
  2.180132e+01    5.898149e+00
  2.191245e+01    8.772798e+00
  2.202358e+01    3.678836e+00
  2.213471e+01    1.859918e+00
  2.224584e+01    1.404256e+00
  2.235696e+01    1.242861e+00
  2.246809e+01    1.166845e+00
  2.257922e+01    1.115458e+00
  2.269035e+01    1.071152e+00
  2.280148e+01    1.064407e+00
  2.291261e+01    1.040244e+00
  2.302374e+01    1.017047e+00
  2.313487e+01    1.001366e+00
  2.324600e+01    9.897506e-01
  2.335713e+01    9.915277e-01
  2.346825e+01    9.429485e-01
  2.357938e+01    9.819260e-01
  2.369051e+01    9.540496e-01
  2.380164e+01    9.276447e-01
  2.391277e+01    9.083784e-01
  2.402390e+01    8.934081e-01
  2.413503e+01    9.021130e-01
  2.424616e+01    8.824074e-01
  2.435729e+01    8.830941e-01
  2.446842e+01    9.035668e-01
  2.457954e+01    8.804789e-01
  2.469067e+01    9.043925e-01
  2.480180e+01    9.000842e-01
  2.491293e+01    9.248454e-01
  2.502406e+01    8.923894e-01
  2.513519e+01    9.151964e-01
  2.524632e+01    9.448317e-01
  2.535745e+01    9.510235e-01
  2.546858e+01    1.025211e+00
  2.557971e+01    1.164017e+00
  2.569083e+01    1.476974e+00
  2.580196e+01    2.828359e+00
  2.591309e+01    6.365242e+00
  2.602422e+01    5.274519e+00
  2.613535e+01    2.112332e+00
  2.624648e+01    1.387373e+00
  2.635761e+01    1.133441e+00
  2.646874e+01    1.030054e+00
  2.657987e+01    9.795756e-01
  2.669100e+01    9.965901e-01
  2.680212e+01    9.772892e-01
  2.691325e+01    1.017679e+00
  2.702438e+01    1.154298e+00
  2.713551e+01    1.747737e+00
  2.724664e+01    2.069090e+00
  2.735777e+01    1.289849e+00
  2.746890e+01    1.010725e+00
  2.758003e+01    9.477583e-01
  2.769116e+01    9.196709e-01
  2.780229e+01    8.970192e-01
  2.791342e+01    8.912877e-01
  2.802454e+01    8.692588e-01
  2.813567e+01    8.658077e-01
  2.824680e+01    8.564475e-01
  2.835793e+01    8.441360e-01
  2.846906e+01    8.615736e-01
  2.858019e+01    8.549083e-01
  2.869132e+01    8.447962e-01
  2.880245e+01    8.364224e-01
  2.891358e+01    8.093487e-01
  2.902471e+01    8.064247e-01
  2.913583e+01    8.096120e-01
  2.924696e+01    8.171556e-01
  2.935809e+01    8.144201e-01
  2.946922e+01    8.180531e-01
  2.958035e+01    7.827061e-01
  2.969148e+01    7.922025e-01
  2.980261e+01    8.021132e-01
  2.991374e+01    8.083547e-01
  3.002487e+01    8.163205e-01
  3.013600e+01    7.907701e-01
  3.024712e+01    7.859857e-01
  3.035825e+01    7.991475e-01
  3.046938e+01    7.904573e-01
  3.058051e+01    7.823945e-01
  3.069164e+01    7.852533e-01
  3.080277e+01    7.928275e-01
  3.091390e+01    8.239841e-01
  3.102503e+01    7.973390e-01
  3.113616e+01    7.674819e-01
  3.124729e+01    7.937289e-01
  3.135841e+01    8.092158e-01
  3.146954e+01    8.116704e-01
  3.158067e+01    8.543518e-01
  3.169180e+01    9.940128e-01
  3.180293e+01    1.443443e+00
  3.191406e+01    2.084259e+00
  3.202519e+01    1.326698e+00
  3.213632e+01    9.481776e-01
  3.224745e+01    8.241811e-01
  3.235858e+01    7.954097e-01
  3.246970e+01    7.911546e-01
  3.254908e+01    7.838065e-01