File: XRD/Reaction conditions/2024-07-27_003_Ru-CGO-ex_Reaction_dwell_000023_data_000135.dat
# == pyFAI calibration ==
# Distance Sample to Detector: 0.4 m
# PONI: 9.750e-02, 1.135e-01 m
# Rotations: -0.000175 0.000000 -0.000000 rad
#
# == Fit2d calibration ==
# Distance Sample-beamCenter: 400.000 mm
# Center: x=1514.000, y=1300.000 pix
# Tilt: 0.010 deg  TiltPlanRot: 0.010 deg
#
# Detector Detector	 Spline= None	 PixelSize= 7.500e-05, 7.500e-05 m
#    Detector has a mask: False
#    Detector has a dark current: False
#    detector has a flat field: False
#
# Wavelength: 6.888e-11 m
# Mask applied: user provided
# Dark current applied: False
# Flat field applied: False
# Polarization factor: 0.99
# Normalization factor: 1.0
# --> /home/myspot/data/2024_07_Rosario/Ru-CGO-ex/2024-07-27_003_Ru-CGO-ex_Reaction_dwell_000023_data_000135.dat
#       q_nm^-1             I
  2.003187e-02    2.195781e-01
  1.311609e-01    3.702858e-02
  2.422899e-01    3.631307e-02
  3.534189e-01    3.527413e-02
  4.645479e-01    4.265780e-02
  5.756770e-01    4.480586e-02
  6.868060e-01    3.705161e-02
  7.979350e-01    1.679582e-01
  9.090640e-01    6.533587e-01
  1.020193e+00    1.298348e+00
  1.131322e+00    1.704191e+00
  1.242451e+00    2.351610e+00
  1.353580e+00    2.726205e+00
  1.464709e+00    3.000015e+00
  1.575838e+00    3.245262e+00
  1.686967e+00    3.192891e+00
  1.798096e+00    3.075364e+00
  1.909225e+00    3.100178e+00
  2.020354e+00    3.059953e+00
  2.131483e+00    3.126471e+00
  2.242612e+00    2.931581e+00
  2.353741e+00    3.188014e+00
  2.464870e+00    3.198952e+00
  2.575999e+00    3.297043e+00
  2.687128e+00    3.281262e+00
  2.798257e+00    3.214333e+00
  2.909386e+00    3.359962e+00
  3.020515e+00    3.311167e+00
  3.131644e+00    3.415134e+00
  3.242773e+00    3.253901e+00
  3.353902e+00    3.403786e+00
  3.465031e+00    3.373498e+00
  3.576160e+00    3.406001e+00
  3.687289e+00    3.410469e+00
  3.798418e+00    3.397257e+00
  3.909547e+00    3.437694e+00
  4.020676e+00    3.578139e+00
  4.131806e+00    3.604178e+00
  4.242935e+00    3.593695e+00
  4.354064e+00    3.564261e+00
  4.465193e+00    3.633332e+00
  4.576322e+00    3.730138e+00
  4.687451e+00    3.689265e+00
  4.798580e+00    3.684291e+00
  4.909709e+00    3.658110e+00
  5.020838e+00    3.724599e+00
  5.131967e+00    3.616987e+00
  5.243096e+00    3.645790e+00
  5.354225e+00    3.731793e+00
  5.465354e+00    3.647357e+00
  5.576483e+00    3.590218e+00
  5.687612e+00    3.641450e+00
  5.798741e+00    3.546270e+00
  5.909870e+00    3.531291e+00
  6.020999e+00    3.595544e+00
  6.132128e+00    3.645995e+00
  6.243257e+00    3.593502e+00
  6.354386e+00    3.524774e+00
  6.465515e+00    3.529480e+00
  6.576644e+00    3.470714e+00
  6.687773e+00    3.590091e+00
  6.798902e+00    3.541257e+00
  6.910031e+00    3.567586e+00
  7.021160e+00    3.580386e+00
  7.132289e+00    3.483282e+00
  7.243418e+00    3.501550e+00
  7.354547e+00    3.485512e+00
  7.465676e+00    3.482653e+00
  7.576805e+00    3.455497e+00
  7.687934e+00    3.512340e+00
  7.799063e+00    3.467991e+00
  7.910192e+00    3.407069e+00
  8.021321e+00    3.431664e+00
  8.132450e+00    3.487352e+00
  8.243579e+00    3.517887e+00
  8.354708e+00    3.429590e+00
  8.465837e+00    3.345762e+00
  8.576966e+00    3.399759e+00
  8.688095e+00    3.398124e+00
  8.799224e+00    3.311842e+00
  8.910353e+00    3.240312e+00
  9.021482e+00    3.299879e+00
  9.132611e+00    3.262639e+00
  9.243740e+00    3.225576e+00
  9.354869e+00    3.237123e+00
  9.465998e+00    3.197919e+00
  9.577127e+00    3.245792e+00
  9.688256e+00    3.185251e+00
  9.799385e+00    3.143258e+00
  9.910514e+00    3.156958e+00
  1.002164e+01    3.109271e+00
  1.013277e+01    3.090697e+00
  1.024390e+01    3.099005e+00
  1.035503e+01    3.045207e+00
  1.046616e+01    3.029898e+00
  1.057729e+01    3.002739e+00
  1.068842e+01    2.943010e+00
  1.079955e+01    2.950434e+00
  1.091068e+01    2.963130e+00
  1.102180e+01    2.922271e+00
  1.113293e+01    2.884295e+00
  1.124406e+01    2.826344e+00
  1.135519e+01    2.870237e+00
  1.146632e+01    2.827834e+00
  1.157745e+01    2.816676e+00
  1.168858e+01    2.725725e+00
  1.179971e+01    2.722671e+00
  1.191084e+01    2.727512e+00
  1.202197e+01    2.729824e+00
  1.213309e+01    2.672895e+00
  1.224422e+01    2.724487e+00
  1.235535e+01    2.684122e+00
  1.246648e+01    2.699237e+00
  1.257761e+01    2.716257e+00
  1.268874e+01    2.860693e+00
  1.279987e+01    2.937723e+00
  1.291100e+01    3.690499e+00
  1.302213e+01    6.655523e+00
  1.313326e+01    1.477780e+01
  1.324438e+01    1.073843e+01
  1.335551e+01    4.454325e+00
  1.346664e+01    3.176859e+00
  1.357777e+01    2.792530e+00
  1.368890e+01    2.579143e+00
  1.380003e+01    2.479331e+00
  1.391116e+01    2.420784e+00
  1.402229e+01    2.382835e+00
  1.413342e+01    2.316439e+00
  1.424455e+01    2.300879e+00
  1.435568e+01    2.244455e+00
  1.446680e+01    2.254037e+00
  1.457793e+01    2.246304e+00
  1.468906e+01    2.192993e+00
  1.480019e+01    2.187659e+00
  1.491132e+01    2.272524e+00
  1.502245e+01    2.485675e+00
  1.513358e+01    3.818954e+00
  1.524471e+01    5.659307e+00
  1.535584e+01    3.758452e+00
  1.546697e+01    2.415806e+00
  1.557809e+01    2.122010e+00
  1.568922e+01    1.998233e+00
  1.580035e+01    1.917742e+00
  1.591148e+01    1.884009e+00
  1.602261e+01    1.855119e+00
  1.613374e+01    1.860367e+00
  1.624487e+01    1.823200e+00
  1.635600e+01    1.837778e+00
  1.646713e+01    1.821092e+00
  1.657826e+01    1.756024e+00
  1.668938e+01    1.764680e+00
  1.680051e+01    1.676235e+00
  1.691164e+01    1.687582e+00
  1.702277e+01    1.652167e+00
  1.713390e+01    1.661379e+00
  1.724503e+01    1.615877e+00
  1.735616e+01    1.614549e+00
  1.746729e+01    1.574135e+00
  1.757842e+01    1.591153e+00
  1.768955e+01    1.547682e+00
  1.780067e+01    1.557375e+00
  1.791180e+01    1.554803e+00
  1.802293e+01    1.531686e+00
  1.813406e+01    1.499012e+00
  1.824519e+01    1.461932e+00
  1.835632e+01    1.493647e+00
  1.846745e+01    1.457507e+00
  1.857858e+01    1.419947e+00
  1.868971e+01    1.415949e+00
  1.880084e+01    1.433192e+00
  1.891196e+01    1.384339e+00
  1.902309e+01    1.384732e+00
  1.913422e+01    1.351152e+00
  1.924535e+01    1.326036e+00
  1.935648e+01    1.372149e+00
  1.946761e+01    1.331028e+00
  1.957874e+01    1.336096e+00
  1.968987e+01    1.323624e+00
  1.980100e+01    1.282501e+00
  1.991213e+01    1.286786e+00
  2.002325e+01    1.284247e+00
  2.013438e+01    1.275436e+00
  2.024551e+01    1.263255e+00
  2.035664e+01    1.268494e+00
  2.046777e+01    1.243389e+00
  2.057890e+01    1.246556e+00
  2.069003e+01    1.239394e+00
  2.080116e+01    1.216113e+00
  2.091229e+01    1.222627e+00
  2.102342e+01    1.228858e+00
  2.113455e+01    1.233622e+00
  2.124567e+01    1.238590e+00
  2.135680e+01    1.274177e+00
  2.146793e+01    1.382275e+00
  2.157906e+01    1.611960e+00
  2.169019e+01    2.486352e+00
  2.180132e+01    5.766497e+00
  2.191245e+01    8.750627e+00
  2.202358e+01    3.654932e+00
  2.213471e+01    1.867774e+00
  2.224584e+01    1.408173e+00
  2.235696e+01    1.236278e+00
  2.246809e+01    1.134754e+00
  2.257922e+01    1.121683e+00
  2.269035e+01    1.087453e+00
  2.280148e+01    1.063480e+00
  2.291261e+01    1.018180e+00
  2.302374e+01    1.049091e+00
  2.313487e+01    1.007271e+00
  2.324600e+01    9.913039e-01
  2.335713e+01    9.727039e-01
  2.346825e+01    9.716505e-01
  2.357938e+01    9.829637e-01
  2.369051e+01    9.401749e-01
  2.380164e+01    9.418793e-01
  2.391277e+01    9.323241e-01
  2.402390e+01    9.095341e-01
  2.413503e+01    8.875662e-01
  2.424616e+01    8.716662e-01
  2.435729e+01    9.166272e-01
  2.446842e+01    9.079809e-01
  2.457954e+01    9.026295e-01
  2.469067e+01    8.840607e-01
  2.480180e+01    8.984578e-01
  2.491293e+01    8.638501e-01
  2.502406e+01    9.208604e-01
  2.513519e+01    9.157740e-01
  2.524632e+01    9.209612e-01
  2.535745e+01    9.822964e-01
  2.546858e+01    1.033447e+00
  2.557971e+01    1.144323e+00
  2.569083e+01    1.512472e+00
  2.580196e+01    2.832439e+00
  2.591309e+01    6.302714e+00
  2.602422e+01    5.291275e+00
  2.613535e+01    2.149249e+00
  2.624648e+01    1.336743e+00
  2.635761e+01    1.103704e+00
  2.646874e+01    1.027563e+00
  2.657987e+01    9.883149e-01
  2.669100e+01    9.880744e-01
  2.680212e+01    9.865092e-01
  2.691325e+01    1.019115e+00
  2.702438e+01    1.140440e+00
  2.713551e+01    1.738746e+00
  2.724664e+01    2.091107e+00
  2.735777e+01    1.258341e+00
  2.746890e+01    1.024180e+00
  2.758003e+01    9.311090e-01
  2.769116e+01    9.151973e-01
  2.780229e+01    9.066562e-01
  2.791342e+01    8.908890e-01
  2.802454e+01    8.714804e-01
  2.813567e+01    8.364635e-01
  2.824680e+01    8.522247e-01
  2.835793e+01    8.529233e-01
  2.846906e+01    8.588489e-01
  2.858019e+01    8.531113e-01
  2.869132e+01    8.250041e-01
  2.880245e+01    8.196591e-01
  2.891358e+01    8.204989e-01
  2.902471e+01    8.147771e-01
  2.913583e+01    8.116192e-01
  2.924696e+01    8.168087e-01
  2.935809e+01    8.130670e-01
  2.946922e+01    8.252229e-01
  2.958035e+01    8.136415e-01
  2.969148e+01    7.973599e-01
  2.980261e+01    8.021628e-01
  2.991374e+01    8.068436e-01
  3.002487e+01    8.318548e-01
  3.013600e+01    7.831991e-01
  3.024712e+01    7.998461e-01
  3.035825e+01    7.945753e-01
  3.046938e+01    7.944335e-01
  3.058051e+01    7.835944e-01
  3.069164e+01    7.982531e-01
  3.080277e+01    7.704876e-01
  3.091390e+01    7.690405e-01
  3.102503e+01    7.881067e-01
  3.113616e+01    7.667506e-01
  3.124729e+01    7.867061e-01
  3.135841e+01    8.215610e-01
  3.146954e+01    8.227887e-01
  3.158067e+01    8.487737e-01
  3.169180e+01    1.003084e+00
  3.180293e+01    1.421213e+00
  3.191406e+01    2.092003e+00
  3.202519e+01    1.342272e+00
  3.213632e+01    9.540936e-01
  3.224745e+01    8.311182e-01
  3.235858e+01    7.995539e-01
  3.246970e+01    7.789701e-01
  3.254908e+01    7.939975e-01