File: XRD/Reaction conditions/2024-07-27_003_Ru-CGO-ex_Reaction_dwell_000023_data_000030.dat
# == pyFAI calibration ==
# Distance Sample to Detector: 0.4 m
# PONI: 9.750e-02, 1.135e-01 m
# Rotations: -0.000175 0.000000 -0.000000 rad
#
# == Fit2d calibration ==
# Distance Sample-beamCenter: 400.000 mm
# Center: x=1514.000, y=1300.000 pix
# Tilt: 0.010 deg  TiltPlanRot: 0.010 deg
#
# Detector Detector	 Spline= None	 PixelSize= 7.500e-05, 7.500e-05 m
#    Detector has a mask: False
#    Detector has a dark current: False
#    detector has a flat field: False
#
# Wavelength: 6.888e-11 m
# Mask applied: user provided
# Dark current applied: False
# Flat field applied: False
# Polarization factor: 0.99
# Normalization factor: 1.0
# --> /home/myspot/data/2024_07_Rosario/Ru-CGO-ex/2024-07-27_003_Ru-CGO-ex_Reaction_dwell_000023_data_000030.dat
#       q_nm^-1             I
  2.003187e-02    9.938470e-02
  1.311609e-01    1.106223e-01
  2.422899e-01    6.253635e-03
  3.534189e-01    5.363058e-02
  4.645479e-01    5.533807e-02
  5.756770e-01    1.319911e-02
  6.868060e-01    5.517610e-02
  7.979350e-01    2.021689e-01
  9.090640e-01    6.852368e-01
  1.020193e+00    1.231946e+00
  1.131322e+00    1.587403e+00
  1.242451e+00    2.558773e+00
  1.353580e+00    2.767913e+00
  1.464709e+00    3.020068e+00
  1.575838e+00    3.268147e+00
  1.686967e+00    3.125367e+00
  1.798096e+00    3.131027e+00
  1.909225e+00    3.074818e+00
  2.020354e+00    3.144343e+00
  2.131483e+00    3.176685e+00
  2.242612e+00    3.177367e+00
  2.353741e+00    3.125697e+00
  2.464870e+00    3.162177e+00
  2.575999e+00    3.191011e+00
  2.687128e+00    3.344012e+00
  2.798257e+00    3.198687e+00
  2.909386e+00    3.352793e+00
  3.020515e+00    3.293665e+00
  3.131644e+00    3.454341e+00
  3.242773e+00    3.459326e+00
  3.353902e+00    3.424335e+00
  3.465031e+00    3.371856e+00
  3.576160e+00    3.547404e+00
  3.687289e+00    3.470322e+00
  3.798418e+00    3.489398e+00
  3.909547e+00    3.477044e+00
  4.020676e+00    3.536070e+00
  4.131806e+00    3.520614e+00
  4.242935e+00    3.543252e+00
  4.354064e+00    3.565413e+00
  4.465193e+00    3.657287e+00
  4.576322e+00    3.649080e+00
  4.687451e+00    3.675445e+00
  4.798580e+00    3.718356e+00
  4.909709e+00    3.631501e+00
  5.020838e+00    3.724851e+00
  5.131967e+00    3.614139e+00
  5.243096e+00    3.684892e+00
  5.354225e+00    3.684874e+00
  5.465354e+00    3.621781e+00
  5.576483e+00    3.701319e+00
  5.687612e+00    3.670145e+00
  5.798741e+00    3.564209e+00
  5.909870e+00    3.505005e+00
  6.020999e+00    3.492788e+00
  6.132128e+00    3.659154e+00
  6.243257e+00    3.585049e+00
  6.354386e+00    3.638417e+00
  6.465515e+00    3.513137e+00
  6.576644e+00    3.601218e+00
  6.687773e+00    3.661894e+00
  6.798902e+00    3.580123e+00
  6.910031e+00    3.607925e+00
  7.021160e+00    3.455381e+00
  7.132289e+00    3.601311e+00
  7.243418e+00    3.462585e+00
  7.354547e+00    3.510677e+00
  7.465676e+00    3.533213e+00
  7.576805e+00    3.425200e+00
  7.687934e+00    3.473333e+00
  7.799063e+00    3.504893e+00
  7.910192e+00    3.475222e+00
  8.021321e+00    3.399848e+00
  8.132450e+00    3.510925e+00
  8.243579e+00    3.537776e+00
  8.354708e+00    3.415018e+00
  8.465837e+00    3.359028e+00
  8.576966e+00    3.313434e+00
  8.688095e+00    3.348882e+00
  8.799224e+00    3.293325e+00
  8.910353e+00    3.281706e+00
  9.021482e+00    3.287056e+00
  9.132611e+00    3.245402e+00
  9.243740e+00    3.296699e+00
  9.354869e+00    3.266652e+00
  9.465998e+00    3.292578e+00
  9.577127e+00    3.239488e+00
  9.688256e+00    3.272786e+00
  9.799385e+00    3.146009e+00
  9.910514e+00    3.160614e+00
  1.002164e+01    3.053321e+00
  1.013277e+01    3.090131e+00
  1.024390e+01    3.083590e+00
  1.035503e+01    3.075373e+00
  1.046616e+01    3.015460e+00
  1.057729e+01    2.957318e+00
  1.068842e+01    3.002876e+00
  1.079955e+01    2.926096e+00
  1.091068e+01    2.964516e+00
  1.102180e+01    2.916720e+00
  1.113293e+01    2.838918e+00
  1.124406e+01    2.865545e+00
  1.135519e+01    2.849182e+00
  1.146632e+01    2.784502e+00
  1.157745e+01    2.864067e+00
  1.168858e+01    2.757637e+00
  1.179971e+01    2.685289e+00
  1.191084e+01    2.709886e+00
  1.202197e+01    2.676976e+00
  1.213309e+01    2.707524e+00
  1.224422e+01    2.711031e+00
  1.235535e+01    2.697526e+00
  1.246648e+01    2.679929e+00
  1.257761e+01    2.699465e+00
  1.268874e+01    2.821832e+00
  1.279987e+01    2.973478e+00
  1.291100e+01    3.715208e+00
  1.302213e+01    6.748678e+00
  1.313326e+01    1.484450e+01
  1.324438e+01    1.072415e+01
  1.335551e+01    4.456293e+00
  1.346664e+01    3.153598e+00
  1.357777e+01    2.739026e+00
  1.368890e+01    2.582401e+00
  1.380003e+01    2.448457e+00
  1.391116e+01    2.394445e+00
  1.402229e+01    2.320954e+00
  1.413342e+01    2.304568e+00
  1.424455e+01    2.316849e+00
  1.435568e+01    2.230028e+00
  1.446680e+01    2.253546e+00
  1.457793e+01    2.214639e+00
  1.468906e+01    2.212911e+00
  1.480019e+01    2.227571e+00
  1.491132e+01    2.245533e+00
  1.502245e+01    2.510810e+00
  1.513358e+01    3.826393e+00
  1.524471e+01    5.727299e+00
  1.535584e+01    3.795427e+00
  1.546697e+01    2.455530e+00
  1.557809e+01    2.125565e+00
  1.568922e+01    2.032217e+00
  1.580035e+01    1.966966e+00
  1.591148e+01    1.881016e+00
  1.602261e+01    1.894399e+00
  1.613374e+01    1.873875e+00
  1.624487e+01    1.816499e+00
  1.635600e+01    1.806849e+00
  1.646713e+01    1.775860e+00
  1.657826e+01    1.770867e+00
  1.668938e+01    1.719960e+00
  1.680051e+01    1.718056e+00
  1.691164e+01    1.670456e+00
  1.702277e+01    1.662859e+00
  1.713390e+01    1.669796e+00
  1.724503e+01    1.616701e+00
  1.735616e+01    1.609801e+00
  1.746729e+01    1.627557e+00
  1.757842e+01    1.568469e+00
  1.768955e+01    1.553976e+00
  1.780067e+01    1.552525e+00
  1.791180e+01    1.548665e+00
  1.802293e+01    1.504129e+00
  1.813406e+01    1.480386e+00
  1.824519e+01    1.482769e+00
  1.835632e+01    1.455685e+00
  1.846745e+01    1.465303e+00
  1.857858e+01    1.445386e+00
  1.868971e+01    1.426536e+00
  1.880084e+01    1.415766e+00
  1.891196e+01    1.407138e+00
  1.902309e+01    1.379125e+00
  1.913422e+01    1.367655e+00
  1.924535e+01    1.360468e+00
  1.935648e+01    1.366326e+00
  1.946761e+01    1.336765e+00
  1.957874e+01    1.317111e+00
  1.968987e+01    1.304511e+00
  1.980100e+01    1.288910e+00
  1.991213e+01    1.331561e+00
  2.002325e+01    1.306855e+00
  2.013438e+01    1.264043e+00
  2.024551e+01    1.310166e+00
  2.035664e+01    1.251265e+00
  2.046777e+01    1.243054e+00
  2.057890e+01    1.222412e+00
  2.069003e+01    1.215571e+00
  2.080116e+01    1.238285e+00
  2.091229e+01    1.222527e+00
  2.102342e+01    1.233509e+00
  2.113455e+01    1.243119e+00
  2.124567e+01    1.250638e+00
  2.135680e+01    1.276431e+00
  2.146793e+01    1.378818e+00
  2.157906e+01    1.592749e+00
  2.169019e+01    2.506227e+00
  2.180132e+01    5.905150e+00
  2.191245e+01    8.726615e+00
  2.202358e+01    3.633634e+00
  2.213471e+01    1.871248e+00
  2.224584e+01    1.424596e+00
  2.235696e+01    1.203350e+00
  2.246809e+01    1.152331e+00
  2.257922e+01    1.112446e+00
  2.269035e+01    1.087325e+00
  2.280148e+01    1.051728e+00
  2.291261e+01    1.026032e+00
  2.302374e+01    1.022347e+00
  2.313487e+01    1.017318e+00
  2.324600e+01    1.000753e+00
  2.335713e+01    9.762592e-01
  2.346825e+01    9.539563e-01
  2.357938e+01    9.603035e-01
  2.369051e+01    9.587179e-01
  2.380164e+01    9.212162e-01
  2.391277e+01    8.920750e-01
  2.402390e+01    9.161355e-01
  2.413503e+01    8.936297e-01
  2.424616e+01    9.030618e-01
  2.435729e+01    9.044200e-01
  2.446842e+01    8.950558e-01
  2.457954e+01    8.905843e-01
  2.469067e+01    9.080796e-01
  2.480180e+01    8.972639e-01
  2.491293e+01    8.870899e-01
  2.502406e+01    9.068184e-01
  2.513519e+01    9.144723e-01
  2.524632e+01    9.391761e-01
  2.535745e+01    9.818905e-01
  2.546858e+01    1.020965e+00
  2.557971e+01    1.159222e+00
  2.569083e+01    1.498555e+00
  2.580196e+01    2.842767e+00
  2.591309e+01    6.378926e+00
  2.602422e+01    5.346310e+00
  2.613535e+01    2.103028e+00
  2.624648e+01    1.361161e+00
  2.635761e+01    1.107046e+00
  2.646874e+01    1.039661e+00
  2.657987e+01    1.005941e+00
  2.669100e+01    9.729957e-01
  2.680212e+01    9.809982e-01
  2.691325e+01    1.002002e+00
  2.702438e+01    1.155844e+00
  2.713551e+01    1.701874e+00
  2.724664e+01    2.063943e+00
  2.735777e+01    1.277293e+00
  2.746890e+01    9.997518e-01
  2.758003e+01    9.329972e-01
  2.769116e+01    9.073443e-01
  2.780229e+01    8.877984e-01
  2.791342e+01    8.856668e-01
  2.802454e+01    8.523651e-01
  2.813567e+01    8.818805e-01
  2.824680e+01    8.551145e-01
  2.835793e+01    8.565867e-01
  2.846906e+01    8.407785e-01
  2.858019e+01    8.457301e-01
  2.869132e+01    8.200036e-01
  2.880245e+01    8.500564e-01
  2.891358e+01    8.142062e-01
  2.902471e+01    8.338683e-01
  2.913583e+01    8.030193e-01
  2.924696e+01    8.225805e-01
  2.935809e+01    7.941907e-01
  2.946922e+01    7.736293e-01
  2.958035e+01    8.059241e-01
  2.969148e+01    8.143943e-01
  2.980261e+01    8.127573e-01
  2.991374e+01    8.156322e-01
  3.002487e+01    8.216878e-01
  3.013600e+01    8.015714e-01
  3.024712e+01    7.654835e-01
  3.035825e+01    7.885687e-01
  3.046938e+01    7.688192e-01
  3.058051e+01    7.976273e-01
  3.069164e+01    7.850405e-01
  3.080277e+01    7.768709e-01
  3.091390e+01    7.982661e-01
  3.102503e+01    7.825447e-01
  3.113616e+01    7.924192e-01
  3.124729e+01    7.934176e-01
  3.135841e+01    8.343665e-01
  3.146954e+01    8.239174e-01
  3.158067e+01    8.818623e-01
  3.169180e+01    9.813656e-01
  3.180293e+01    1.463647e+00
  3.191406e+01    2.109329e+00
  3.202519e+01    1.310970e+00
  3.213632e+01    9.419687e-01
  3.224745e+01    8.306416e-01
  3.235858e+01    8.101387e-01
  3.246970e+01    7.874150e-01
  3.254908e+01    7.667344e-01