File: XRD/Reaction conditions/2024-07-27_003_Ru-CGO-ex_Reaction_dwell_000023_data_000056.dat
# == pyFAI calibration ==
# Distance Sample to Detector: 0.4 m
# PONI: 9.750e-02, 1.135e-01 m
# Rotations: -0.000175 0.000000 -0.000000 rad
#
# == Fit2d calibration ==
# Distance Sample-beamCenter: 400.000 mm
# Center: x=1514.000, y=1300.000 pix
# Tilt: 0.010 deg  TiltPlanRot: 0.010 deg
#
# Detector Detector	 Spline= None	 PixelSize= 7.500e-05, 7.500e-05 m
#    Detector has a mask: False
#    Detector has a dark current: False
#    detector has a flat field: False
#
# Wavelength: 6.888e-11 m
# Mask applied: user provided
# Dark current applied: False
# Flat field applied: False
# Polarization factor: 0.99
# Normalization factor: 1.0
# --> /home/myspot/data/2024_07_Rosario/Ru-CGO-ex/2024-07-27_003_Ru-CGO-ex_Reaction_dwell_000023_data_000056.dat
#       q_nm^-1             I
  2.003187e-02    0.000000e+00
  1.311609e-01    7.487686e-02
  2.422899e-01    1.932249e-02
  3.534189e-01    2.814002e-02
  4.645479e-01    2.279809e-02
  5.756770e-01    3.427776e-02
  6.868060e-01    3.068178e-02
  7.979350e-01    1.917402e-01
  9.090640e-01    7.400662e-01
  1.020193e+00    1.349486e+00
  1.131322e+00    1.645335e+00
  1.242451e+00    2.312307e+00
  1.353580e+00    2.829772e+00
  1.464709e+00    3.021389e+00
  1.575838e+00    3.108334e+00
  1.686967e+00    3.074833e+00
  1.798096e+00    3.008955e+00
  1.909225e+00    2.986325e+00
  2.020354e+00    3.019119e+00
  2.131483e+00    3.178294e+00
  2.242612e+00    3.204428e+00
  2.353741e+00    3.158096e+00
  2.464870e+00    3.230427e+00
  2.575999e+00    3.286510e+00
  2.687128e+00    3.365924e+00
  2.798257e+00    3.331830e+00
  2.909386e+00    3.253396e+00
  3.020515e+00    3.435233e+00
  3.131644e+00    3.421264e+00
  3.242773e+00    3.471411e+00
  3.353902e+00    3.403827e+00
  3.465031e+00    3.480570e+00
  3.576160e+00    3.383425e+00
  3.687289e+00    3.475459e+00
  3.798418e+00    3.468654e+00
  3.909547e+00    3.526146e+00
  4.020676e+00    3.524523e+00
  4.131806e+00    3.588119e+00
  4.242935e+00    3.586316e+00
  4.354064e+00    3.517635e+00
  4.465193e+00    3.592987e+00
  4.576322e+00    3.629957e+00
  4.687451e+00    3.628983e+00
  4.798580e+00    3.708957e+00
  4.909709e+00    3.727031e+00
  5.020838e+00    3.715813e+00
  5.131967e+00    3.581111e+00
  5.243096e+00    3.660524e+00
  5.354225e+00    3.658817e+00
  5.465354e+00    3.622279e+00
  5.576483e+00    3.653249e+00
  5.687612e+00    3.529314e+00
  5.798741e+00    3.524154e+00
  5.909870e+00    3.601732e+00
  6.020999e+00    3.508882e+00
  6.132128e+00    3.581158e+00
  6.243257e+00    3.592217e+00
  6.354386e+00    3.553275e+00
  6.465515e+00    3.530508e+00
  6.576644e+00    3.591128e+00
  6.687773e+00    3.526812e+00
  6.798902e+00    3.549316e+00
  6.910031e+00    3.548770e+00
  7.021160e+00    3.556259e+00
  7.132289e+00    3.517618e+00
  7.243418e+00    3.481851e+00
  7.354547e+00    3.536084e+00
  7.465676e+00    3.574265e+00
  7.576805e+00    3.543022e+00
  7.687934e+00    3.447925e+00
  7.799063e+00    3.396480e+00
  7.910192e+00    3.460987e+00
  8.021321e+00    3.445363e+00
  8.132450e+00    3.486959e+00
  8.243579e+00    3.500049e+00
  8.354708e+00    3.415369e+00
  8.465837e+00    3.377213e+00
  8.576966e+00    3.337610e+00
  8.688095e+00    3.378496e+00
  8.799224e+00    3.299866e+00
  8.910353e+00    3.405581e+00
  9.021482e+00    3.370293e+00
  9.132611e+00    3.294507e+00
  9.243740e+00    3.247562e+00
  9.354869e+00    3.277757e+00
  9.465998e+00    3.257221e+00
  9.577127e+00    3.174348e+00
  9.688256e+00    3.187593e+00
  9.799385e+00    3.206848e+00
  9.910514e+00    3.143220e+00
  1.002164e+01    3.155183e+00
  1.013277e+01    3.100688e+00
  1.024390e+01    3.138697e+00
  1.035503e+01    3.043751e+00
  1.046616e+01    2.991832e+00
  1.057729e+01    3.019380e+00
  1.068842e+01    2.938028e+00
  1.079955e+01    2.925425e+00
  1.091068e+01    3.005644e+00
  1.102180e+01    2.898539e+00
  1.113293e+01    2.977736e+00
  1.124406e+01    2.851476e+00
  1.135519e+01    2.879071e+00
  1.146632e+01    2.769235e+00
  1.157745e+01    2.807389e+00
  1.168858e+01    2.771794e+00
  1.179971e+01    2.743569e+00
  1.191084e+01    2.712755e+00
  1.202197e+01    2.686963e+00
  1.213309e+01    2.753725e+00
  1.224422e+01    2.704061e+00
  1.235535e+01    2.701268e+00
  1.246648e+01    2.712199e+00
  1.257761e+01    2.777919e+00
  1.268874e+01    2.863953e+00
  1.279987e+01    3.009436e+00
  1.291100e+01    3.648938e+00
  1.302213e+01    6.648837e+00
  1.313326e+01    1.484161e+01
  1.324438e+01    1.084690e+01
  1.335551e+01    4.486426e+00
  1.346664e+01    3.125840e+00
  1.357777e+01    2.769802e+00
  1.368890e+01    2.628345e+00
  1.380003e+01    2.491933e+00
  1.391116e+01    2.466491e+00
  1.402229e+01    2.445951e+00
  1.413342e+01    2.343401e+00
  1.424455e+01    2.313379e+00
  1.435568e+01    2.317032e+00
  1.446680e+01    2.205311e+00
  1.457793e+01    2.218932e+00
  1.468906e+01    2.247398e+00
  1.480019e+01    2.244597e+00
  1.491132e+01    2.236800e+00
  1.502245e+01    2.505387e+00
  1.513358e+01    3.769711e+00
  1.524471e+01    5.817899e+00
  1.535584e+01    3.816966e+00
  1.546697e+01    2.431420e+00
  1.557809e+01    2.112514e+00
  1.568922e+01    2.019536e+00
  1.580035e+01    1.930160e+00
  1.591148e+01    1.912631e+00
  1.602261e+01    1.879749e+00
  1.613374e+01    1.831969e+00
  1.624487e+01    1.829331e+00
  1.635600e+01    1.789248e+00
  1.646713e+01    1.783639e+00
  1.657826e+01    1.787974e+00
  1.668938e+01    1.764320e+00
  1.680051e+01    1.680041e+00
  1.691164e+01    1.681395e+00
  1.702277e+01    1.649740e+00
  1.713390e+01    1.683703e+00
  1.724503e+01    1.639827e+00
  1.735616e+01    1.641127e+00
  1.746729e+01    1.590826e+00
  1.757842e+01    1.586030e+00
  1.768955e+01    1.548027e+00
  1.780067e+01    1.573630e+00
  1.791180e+01    1.551687e+00
  1.802293e+01    1.505463e+00
  1.813406e+01    1.497536e+00
  1.824519e+01    1.491367e+00
  1.835632e+01    1.461836e+00
  1.846745e+01    1.455488e+00
  1.857858e+01    1.428678e+00
  1.868971e+01    1.431250e+00
  1.880084e+01    1.409068e+00
  1.891196e+01    1.387346e+00
  1.902309e+01    1.371840e+00
  1.913422e+01    1.354957e+00
  1.924535e+01    1.387100e+00
  1.935648e+01    1.336269e+00
  1.946761e+01    1.346447e+00
  1.957874e+01    1.318902e+00
  1.968987e+01    1.336357e+00
  1.980100e+01    1.313786e+00
  1.991213e+01    1.277008e+00
  2.002325e+01    1.309928e+00
  2.013438e+01    1.248560e+00
  2.024551e+01    1.255723e+00
  2.035664e+01    1.252681e+00
  2.046777e+01    1.243983e+00
  2.057890e+01    1.254422e+00
  2.069003e+01    1.228671e+00
  2.080116e+01    1.215212e+00
  2.091229e+01    1.229376e+00
  2.102342e+01    1.229808e+00
  2.113455e+01    1.195031e+00
  2.124567e+01    1.253175e+00
  2.135680e+01    1.286782e+00
  2.146793e+01    1.365919e+00
  2.157906e+01    1.602789e+00
  2.169019e+01    2.475344e+00
  2.180132e+01    5.788887e+00
  2.191245e+01    8.834649e+00
  2.202358e+01    3.704553e+00
  2.213471e+01    1.884811e+00
  2.224584e+01    1.397141e+00
  2.235696e+01    1.248960e+00
  2.246809e+01    1.176278e+00
  2.257922e+01    1.096095e+00
  2.269035e+01    1.092210e+00
  2.280148e+01    1.074533e+00
  2.291261e+01    1.040277e+00
  2.302374e+01    1.019313e+00
  2.313487e+01    1.022826e+00
  2.324600e+01    9.823000e-01
  2.335713e+01    9.819807e-01
  2.346825e+01    9.616568e-01
  2.357938e+01    9.741002e-01
  2.369051e+01    9.180452e-01
  2.380164e+01    9.486594e-01
  2.391277e+01    9.036207e-01
  2.402390e+01    8.942699e-01
  2.413503e+01    9.254932e-01
  2.424616e+01    8.862608e-01
  2.435729e+01    8.959346e-01
  2.446842e+01    9.140977e-01
  2.457954e+01    9.052728e-01
  2.469067e+01    8.995352e-01
  2.480180e+01    8.975254e-01
  2.491293e+01    9.049696e-01
  2.502406e+01    8.939176e-01
  2.513519e+01    8.976127e-01
  2.524632e+01    9.341403e-01
  2.535745e+01    9.774078e-01
  2.546858e+01    1.007440e+00
  2.557971e+01    1.157029e+00
  2.569083e+01    1.478559e+00
  2.580196e+01    2.771380e+00
  2.591309e+01    6.314041e+00
  2.602422e+01    5.380193e+00
  2.613535e+01    2.158422e+00
  2.624648e+01    1.366727e+00
  2.635761e+01    1.137884e+00
  2.646874e+01    1.016929e+00
  2.657987e+01    9.969391e-01
  2.669100e+01    9.599438e-01
  2.680212e+01    9.674230e-01
  2.691325e+01    1.018831e+00
  2.702438e+01    1.143833e+00
  2.713551e+01    1.737344e+00
  2.724664e+01    2.104765e+00
  2.735777e+01    1.278647e+00
  2.746890e+01    1.014405e+00
  2.758003e+01    9.218639e-01
  2.769116e+01    9.215303e-01
  2.780229e+01    8.968017e-01
  2.791342e+01    8.664601e-01
  2.802454e+01    8.523512e-01
  2.813567e+01    8.854799e-01
  2.824680e+01    8.683996e-01
  2.835793e+01    8.510932e-01
  2.846906e+01    8.622038e-01
  2.858019e+01    8.350699e-01
  2.869132e+01    8.430015e-01
  2.880245e+01    8.254973e-01
  2.891358e+01    8.181660e-01
  2.902471e+01    8.094737e-01
  2.913583e+01    8.350109e-01
  2.924696e+01    8.149056e-01
  2.935809e+01    8.125622e-01
  2.946922e+01    7.967402e-01
  2.958035e+01    8.078291e-01
  2.969148e+01    7.741816e-01
  2.980261e+01    8.020095e-01
  2.991374e+01    7.844819e-01
  3.002487e+01    8.226780e-01
  3.013600e+01    8.142383e-01
  3.024712e+01    7.948875e-01
  3.035825e+01    8.018383e-01
  3.046938e+01    7.940221e-01
  3.058051e+01    7.933450e-01
  3.069164e+01    7.753078e-01
  3.080277e+01    7.844718e-01
  3.091390e+01    7.856080e-01
  3.102503e+01    7.994693e-01
  3.113616e+01    7.903444e-01
  3.124729e+01    7.889977e-01
  3.135841e+01    7.941883e-01
  3.146954e+01    8.307084e-01
  3.158067e+01    8.709995e-01
  3.169180e+01    9.942155e-01
  3.180293e+01    1.443175e+00
  3.191406e+01    2.058031e+00
  3.202519e+01    1.311138e+00
  3.213632e+01    9.481111e-01
  3.224745e+01    8.225718e-01
  3.235858e+01    8.217037e-01
  3.246970e+01    7.782384e-01
  3.254908e+01    7.599220e-01