File: XRD/Reaction conditions/2024-07-27_003_Ru-CGO-ex_Reaction_dwell_000023_data_000181.dat
# == pyFAI calibration ==
# Distance Sample to Detector: 0.4 m
# PONI: 9.750e-02, 1.135e-01 m
# Rotations: -0.000175 0.000000 -0.000000 rad
#
# == Fit2d calibration ==
# Distance Sample-beamCenter: 400.000 mm
# Center: x=1514.000, y=1300.000 pix
# Tilt: 0.010 deg  TiltPlanRot: 0.010 deg
#
# Detector Detector	 Spline= None	 PixelSize= 7.500e-05, 7.500e-05 m
#    Detector has a mask: False
#    Detector has a dark current: False
#    detector has a flat field: False
#
# Wavelength: 6.888e-11 m
# Mask applied: user provided
# Dark current applied: False
# Flat field applied: False
# Polarization factor: 0.99
# Normalization factor: 1.0
# --> /home/myspot/data/2024_07_Rosario/Ru-CGO-ex/2024-07-27_003_Ru-CGO-ex_Reaction_dwell_000023_data_000181.dat
#       q_nm^-1             I
  2.003187e-02    0.000000e+00
  1.311609e-01    6.151725e-03
  2.422899e-01    4.517051e-02
  3.534189e-01    1.198593e-02
  4.645479e-01    5.231291e-02
  5.756770e-01    4.598604e-02
  6.868060e-01    4.649093e-02
  7.979350e-01    1.616873e-01
  9.090640e-01    6.859047e-01
  1.020193e+00    1.271086e+00
  1.131322e+00    1.493938e+00
  1.242451e+00    2.342333e+00
  1.353580e+00    2.763796e+00
  1.464709e+00    2.952821e+00
  1.575838e+00    3.159345e+00
  1.686967e+00    3.022684e+00
  1.798096e+00    3.049286e+00
  1.909225e+00    2.950604e+00
  2.020354e+00    3.010035e+00
  2.131483e+00    3.113283e+00
  2.242612e+00    2.989597e+00
  2.353741e+00    3.138278e+00
  2.464870e+00    2.972279e+00
  2.575999e+00    3.207521e+00
  2.687128e+00    3.304912e+00
  2.798257e+00    3.201560e+00
  2.909386e+00    3.208195e+00
  3.020515e+00    3.287286e+00
  3.131644e+00    3.299095e+00
  3.242773e+00    3.314243e+00
  3.353902e+00    3.359989e+00
  3.465031e+00    3.323834e+00
  3.576160e+00    3.328542e+00
  3.687289e+00    3.492416e+00
  3.798418e+00    3.407980e+00
  3.909547e+00    3.499230e+00
  4.020676e+00    3.386485e+00
  4.131806e+00    3.511697e+00
  4.242935e+00    3.496789e+00
  4.354064e+00    3.496259e+00
  4.465193e+00    3.545017e+00
  4.576322e+00    3.482920e+00
  4.687451e+00    3.598874e+00
  4.798580e+00    3.472075e+00
  4.909709e+00    3.593995e+00
  5.020838e+00    3.687400e+00
  5.131967e+00    3.651750e+00
  5.243096e+00    3.601291e+00
  5.354225e+00    3.694132e+00
  5.465354e+00    3.567378e+00
  5.576483e+00    3.575378e+00
  5.687612e+00    3.566586e+00
  5.798741e+00    3.493599e+00
  5.909870e+00    3.497951e+00
  6.020999e+00    3.509766e+00
  6.132128e+00    3.505856e+00
  6.243257e+00    3.538021e+00
  6.354386e+00    3.557786e+00
  6.465515e+00    3.532752e+00
  6.576644e+00    3.486653e+00
  6.687773e+00    3.553050e+00
  6.798902e+00    3.457631e+00
  6.910031e+00    3.501132e+00
  7.021160e+00    3.427434e+00
  7.132289e+00    3.475709e+00
  7.243418e+00    3.530709e+00
  7.354547e+00    3.395993e+00
  7.465676e+00    3.454496e+00
  7.576805e+00    3.382579e+00
  7.687934e+00    3.445495e+00
  7.799063e+00    3.457176e+00
  7.910192e+00    3.424787e+00
  8.021321e+00    3.398205e+00
  8.132450e+00    3.362941e+00
  8.243579e+00    3.473985e+00
  8.354708e+00    3.384854e+00
  8.465837e+00    3.380239e+00
  8.576966e+00    3.371037e+00
  8.688095e+00    3.246614e+00
  8.799224e+00    3.245697e+00
  8.910353e+00    3.304297e+00
  9.021482e+00    3.251354e+00
  9.132611e+00    3.244984e+00
  9.243740e+00    3.225890e+00
  9.354869e+00    3.203471e+00
  9.465998e+00    3.176545e+00
  9.577127e+00    3.144759e+00
  9.688256e+00    3.124879e+00
  9.799385e+00    3.134428e+00
  9.910514e+00    3.127040e+00
  1.002164e+01    3.041561e+00
  1.013277e+01    3.019354e+00
  1.024390e+01    3.027863e+00
  1.035503e+01    2.989526e+00
  1.046616e+01    2.971936e+00
  1.057729e+01    2.989410e+00
  1.068842e+01    2.902772e+00
  1.079955e+01    2.931134e+00
  1.091068e+01    2.903988e+00
  1.102180e+01    2.850887e+00
  1.113293e+01    2.780347e+00
  1.124406e+01    2.767024e+00
  1.135519e+01    2.824359e+00
  1.146632e+01    2.760136e+00
  1.157745e+01    2.737747e+00
  1.168858e+01    2.733729e+00
  1.179971e+01    2.714444e+00
  1.191084e+01    2.686339e+00
  1.202197e+01    2.668705e+00
  1.213309e+01    2.623793e+00
  1.224422e+01    2.659469e+00
  1.235535e+01    2.685374e+00
  1.246648e+01    2.635351e+00
  1.257761e+01    2.684909e+00
  1.268874e+01    2.787520e+00
  1.279987e+01    2.908970e+00
  1.291100e+01    3.608477e+00
  1.302213e+01    6.650977e+00
  1.313326e+01    1.456600e+01
  1.324438e+01    1.056967e+01
  1.335551e+01    4.344081e+00
  1.346664e+01    3.030362e+00
  1.357777e+01    2.727410e+00
  1.368890e+01    2.518227e+00
  1.380003e+01    2.442066e+00
  1.391116e+01    2.357676e+00
  1.402229e+01    2.339313e+00
  1.413342e+01    2.299932e+00
  1.424455e+01    2.219975e+00
  1.435568e+01    2.198124e+00
  1.446680e+01    2.181179e+00
  1.457793e+01    2.192849e+00
  1.468906e+01    2.179534e+00
  1.480019e+01    2.154660e+00
  1.491132e+01    2.213292e+00
  1.502245e+01    2.502790e+00
  1.513358e+01    3.769659e+00
  1.524471e+01    5.632759e+00
  1.535584e+01    3.713320e+00
  1.546697e+01    2.391714e+00
  1.557809e+01    2.110022e+00
  1.568922e+01    1.994150e+00
  1.580035e+01    1.875417e+00
  1.591148e+01    1.869169e+00
  1.602261e+01    1.836071e+00
  1.613374e+01    1.815445e+00
  1.624487e+01    1.772658e+00
  1.635600e+01    1.749043e+00
  1.646713e+01    1.735209e+00
  1.657826e+01    1.721266e+00
  1.668938e+01    1.704155e+00
  1.680051e+01    1.686684e+00
  1.691164e+01    1.667145e+00
  1.702277e+01    1.658970e+00
  1.713390e+01    1.647609e+00
  1.724503e+01    1.634463e+00
  1.735616e+01    1.576097e+00
  1.746729e+01    1.603882e+00
  1.757842e+01    1.573891e+00
  1.768955e+01    1.521421e+00
  1.780067e+01    1.534658e+00
  1.791180e+01    1.485090e+00
  1.802293e+01    1.497084e+00
  1.813406e+01    1.477285e+00
  1.824519e+01    1.484318e+00
  1.835632e+01    1.428465e+00
  1.846745e+01    1.392516e+00
  1.857858e+01    1.447360e+00
  1.868971e+01    1.392039e+00
  1.880084e+01    1.389629e+00
  1.891196e+01    1.392100e+00
  1.902309e+01    1.357806e+00
  1.913422e+01    1.327144e+00
  1.924535e+01    1.351554e+00
  1.935648e+01    1.352654e+00
  1.946761e+01    1.345742e+00
  1.957874e+01    1.319184e+00
  1.968987e+01    1.292241e+00
  1.980100e+01    1.287735e+00
  1.991213e+01    1.310904e+00
  2.002325e+01    1.254407e+00
  2.013438e+01    1.249776e+00
  2.024551e+01    1.254936e+00
  2.035664e+01    1.239991e+00
  2.046777e+01    1.242760e+00
  2.057890e+01    1.221738e+00
  2.069003e+01    1.215370e+00
  2.080116e+01    1.193142e+00
  2.091229e+01    1.218954e+00
  2.102342e+01    1.212959e+00
  2.113455e+01    1.217396e+00
  2.124567e+01    1.246427e+00
  2.135680e+01    1.264804e+00
  2.146793e+01    1.335911e+00
  2.157906e+01    1.579695e+00
  2.169019e+01    2.495102e+00
  2.180132e+01    5.761930e+00
  2.191245e+01    8.611015e+00
  2.202358e+01    3.538688e+00
  2.213471e+01    1.822168e+00
  2.224584e+01    1.384231e+00
  2.235696e+01    1.243613e+00
  2.246809e+01    1.163890e+00
  2.257922e+01    1.108594e+00
  2.269035e+01    1.067502e+00
  2.280148e+01    1.025761e+00
  2.291261e+01    1.010413e+00
  2.302374e+01    1.037132e+00
  2.313487e+01    1.009469e+00
  2.324600e+01    9.782485e-01
  2.335713e+01    9.442749e-01
  2.346825e+01    9.636083e-01
  2.357938e+01    9.432898e-01
  2.369051e+01    9.307278e-01
  2.380164e+01    9.011050e-01
  2.391277e+01    9.120018e-01
  2.402390e+01    8.798515e-01
  2.413503e+01    8.711365e-01
  2.424616e+01    8.562278e-01
  2.435729e+01    8.679113e-01
  2.446842e+01    8.747010e-01
  2.457954e+01    8.688096e-01
  2.469067e+01    8.770255e-01
  2.480180e+01    8.865877e-01
  2.491293e+01    8.852811e-01
  2.502406e+01    8.846201e-01
  2.513519e+01    9.035453e-01
  2.524632e+01    9.081485e-01
  2.535745e+01    9.586899e-01
  2.546858e+01    1.011445e+00
  2.557971e+01    1.151097e+00
  2.569083e+01    1.484239e+00
  2.580196e+01    2.762312e+00
  2.591309e+01    6.185657e+00
  2.602422e+01    5.158232e+00
  2.613535e+01    2.068028e+00
  2.624648e+01    1.328053e+00
  2.635761e+01    1.088911e+00
  2.646874e+01    9.871116e-01
  2.657987e+01    9.755216e-01
  2.669100e+01    9.410782e-01
  2.680212e+01    9.749537e-01
  2.691325e+01    9.936308e-01
  2.702438e+01    1.131474e+00
  2.713551e+01    1.696838e+00
  2.724664e+01    2.049006e+00
  2.735777e+01    1.271862e+00
  2.746890e+01    9.963086e-01
  2.758003e+01    9.100965e-01
  2.769116e+01    8.876174e-01
  2.780229e+01    8.764501e-01
  2.791342e+01    8.744877e-01
  2.802454e+01    8.452471e-01
  2.813567e+01    8.568687e-01
  2.824680e+01    8.405707e-01
  2.835793e+01    8.117388e-01
  2.846906e+01    8.306816e-01
  2.858019e+01    8.171746e-01
  2.869132e+01    8.207668e-01
  2.880245e+01    8.193791e-01
  2.891358e+01    7.977929e-01
  2.902471e+01    8.139049e-01
  2.913583e+01    8.083495e-01
  2.924696e+01    7.872520e-01
  2.935809e+01    7.968996e-01
  2.946922e+01    8.057973e-01
  2.958035e+01    7.821683e-01
  2.969148e+01    8.016899e-01
  2.980261e+01    7.772989e-01
  2.991374e+01    8.008448e-01
  3.002487e+01    7.987379e-01
  3.013600e+01    7.902382e-01
  3.024712e+01    7.998312e-01
  3.035825e+01    7.828985e-01
  3.046938e+01    7.815194e-01
  3.058051e+01    7.917321e-01
  3.069164e+01    7.865210e-01
  3.080277e+01    7.705663e-01
  3.091390e+01    7.766134e-01
  3.102503e+01    7.827598e-01
  3.113616e+01    7.972385e-01
  3.124729e+01    8.079402e-01
  3.135841e+01    7.984459e-01
  3.146954e+01    8.029338e-01
  3.158067e+01    8.492517e-01
  3.169180e+01    9.798837e-01
  3.180293e+01    1.426759e+00
  3.191406e+01    2.032611e+00
  3.202519e+01    1.327103e+00
  3.213632e+01    9.119410e-01
  3.224745e+01    8.155127e-01
  3.235858e+01    7.913531e-01
  3.246970e+01    7.586978e-01
  3.254908e+01    7.730102e-01