File: XRD/Reaction conditions/2024-07-27_003_Ru-CGO-ex_Reaction_dwell_000023_data_000177.dat
# == pyFAI calibration ==
# Distance Sample to Detector: 0.4 m
# PONI: 9.750e-02, 1.135e-01 m
# Rotations: -0.000175 0.000000 -0.000000 rad
#
# == Fit2d calibration ==
# Distance Sample-beamCenter: 400.000 mm
# Center: x=1514.000, y=1300.000 pix
# Tilt: 0.010 deg  TiltPlanRot: 0.010 deg
#
# Detector Detector	 Spline= None	 PixelSize= 7.500e-05, 7.500e-05 m
#    Detector has a mask: False
#    Detector has a dark current: False
#    detector has a flat field: False
#
# Wavelength: 6.888e-11 m
# Mask applied: user provided
# Dark current applied: False
# Flat field applied: False
# Polarization factor: 0.99
# Normalization factor: 1.0
# --> /home/myspot/data/2024_07_Rosario/Ru-CGO-ex/2024-07-27_003_Ru-CGO-ex_Reaction_dwell_000023_data_000177.dat
#       q_nm^-1             I
  2.003187e-02    2.195869e-01
  1.311609e-01    1.328120e-01
  2.422899e-01    3.070093e-02
  3.534189e-01    3.650626e-02
  4.645479e-01    4.892904e-02
  5.756770e-01    3.845246e-02
  6.868060e-01    4.254559e-02
  7.979350e-01    2.101462e-01
  9.090640e-01    6.449593e-01
  1.020193e+00    1.376342e+00
  1.131322e+00    1.751971e+00
  1.242451e+00    2.352126e+00
  1.353580e+00    2.568040e+00
  1.464709e+00    2.959697e+00
  1.575838e+00    3.262220e+00
  1.686967e+00    3.089596e+00
  1.798096e+00    2.949167e+00
  1.909225e+00    3.025947e+00
  2.020354e+00    3.118445e+00
  2.131483e+00    3.024051e+00
  2.242612e+00    3.093551e+00
  2.353741e+00    3.103120e+00
  2.464870e+00    3.117670e+00
  2.575999e+00    3.207912e+00
  2.687128e+00    3.190376e+00
  2.798257e+00    3.179080e+00
  2.909386e+00    3.278559e+00
  3.020515e+00    3.343097e+00
  3.131644e+00    3.192143e+00
  3.242773e+00    3.335212e+00
  3.353902e+00    3.359896e+00
  3.465031e+00    3.399670e+00
  3.576160e+00    3.408838e+00
  3.687289e+00    3.490897e+00
  3.798418e+00    3.376807e+00
  3.909547e+00    3.402189e+00
  4.020676e+00    3.522008e+00
  4.131806e+00    3.609344e+00
  4.242935e+00    3.566083e+00
  4.354064e+00    3.521618e+00
  4.465193e+00    3.553436e+00
  4.576322e+00    3.489899e+00
  4.687451e+00    3.569870e+00
  4.798580e+00    3.561975e+00
  4.909709e+00    3.602112e+00
  5.020838e+00    3.583599e+00
  5.131967e+00    3.493517e+00
  5.243096e+00    3.641661e+00
  5.354225e+00    3.637288e+00
  5.465354e+00    3.598313e+00
  5.576483e+00    3.470046e+00
  5.687612e+00    3.527715e+00
  5.798741e+00    3.447994e+00
  5.909870e+00    3.454063e+00
  6.020999e+00    3.461975e+00
  6.132128e+00    3.499830e+00
  6.243257e+00    3.558163e+00
  6.354386e+00    3.531108e+00
  6.465515e+00    3.557801e+00
  6.576644e+00    3.478618e+00
  6.687773e+00    3.452116e+00
  6.798902e+00    3.510267e+00
  6.910031e+00    3.489473e+00
  7.021160e+00    3.546606e+00
  7.132289e+00    3.525372e+00
  7.243418e+00    3.447668e+00
  7.354547e+00    3.464885e+00
  7.465676e+00    3.407639e+00
  7.576805e+00    3.462948e+00
  7.687934e+00    3.333805e+00
  7.799063e+00    3.376449e+00
  7.910192e+00    3.422315e+00
  8.021321e+00    3.364786e+00
  8.132450e+00    3.376742e+00
  8.243579e+00    3.453499e+00
  8.354708e+00    3.340669e+00
  8.465837e+00    3.352962e+00
  8.576966e+00    3.302296e+00
  8.688095e+00    3.276160e+00
  8.799224e+00    3.311695e+00
  8.910353e+00    3.242554e+00
  9.021482e+00    3.275460e+00
  9.132611e+00    3.170843e+00
  9.243740e+00    3.200543e+00
  9.354869e+00    3.176941e+00
  9.465998e+00    3.176547e+00
  9.577127e+00    3.115611e+00
  9.688256e+00    3.109812e+00
  9.799385e+00    3.114008e+00
  9.910514e+00    3.094048e+00
  1.002164e+01    3.099234e+00
  1.013277e+01    3.040182e+00
  1.024390e+01    3.042084e+00
  1.035503e+01    3.001869e+00
  1.046616e+01    2.997239e+00
  1.057729e+01    2.975658e+00
  1.068842e+01    2.967931e+00
  1.079955e+01    2.930698e+00
  1.091068e+01    2.970546e+00
  1.102180e+01    2.836272e+00
  1.113293e+01    2.833183e+00
  1.124406e+01    2.862153e+00
  1.135519e+01    2.758760e+00
  1.146632e+01    2.805566e+00
  1.157745e+01    2.757289e+00
  1.168858e+01    2.701160e+00
  1.179971e+01    2.691679e+00
  1.191084e+01    2.674956e+00
  1.202197e+01    2.688778e+00
  1.213309e+01    2.646851e+00
  1.224422e+01    2.629646e+00
  1.235535e+01    2.631434e+00
  1.246648e+01    2.662477e+00
  1.257761e+01    2.660993e+00
  1.268874e+01    2.735789e+00
  1.279987e+01    3.001130e+00
  1.291100e+01    3.563391e+00
  1.302213e+01    6.565821e+00
  1.313326e+01    1.468456e+01
  1.324438e+01    1.053582e+01
  1.335551e+01    4.444383e+00
  1.346664e+01    3.132339e+00
  1.357777e+01    2.729849e+00
  1.368890e+01    2.548442e+00
  1.380003e+01    2.476757e+00
  1.391116e+01    2.392062e+00
  1.402229e+01    2.368950e+00
  1.413342e+01    2.276747e+00
  1.424455e+01    2.242249e+00
  1.435568e+01    2.204348e+00
  1.446680e+01    2.168823e+00
  1.457793e+01    2.184808e+00
  1.468906e+01    2.143175e+00
  1.480019e+01    2.211733e+00
  1.491132e+01    2.229866e+00
  1.502245e+01    2.502133e+00
  1.513358e+01    3.759043e+00
  1.524471e+01    5.639174e+00
  1.535584e+01    3.779636e+00
  1.546697e+01    2.398226e+00
  1.557809e+01    2.084711e+00
  1.568922e+01    1.960817e+00
  1.580035e+01    1.946359e+00
  1.591148e+01    1.868058e+00
  1.602261e+01    1.863399e+00
  1.613374e+01    1.842834e+00
  1.624487e+01    1.756875e+00
  1.635600e+01    1.755669e+00
  1.646713e+01    1.741177e+00
  1.657826e+01    1.715287e+00
  1.668938e+01    1.705955e+00
  1.680051e+01    1.684027e+00
  1.691164e+01    1.679285e+00
  1.702277e+01    1.656023e+00
  1.713390e+01    1.609440e+00
  1.724503e+01    1.584242e+00
  1.735616e+01    1.610192e+00
  1.746729e+01    1.555569e+00
  1.757842e+01    1.557885e+00
  1.768955e+01    1.522849e+00
  1.780067e+01    1.501444e+00
  1.791180e+01    1.524649e+00
  1.802293e+01    1.512611e+00
  1.813406e+01    1.473964e+00
  1.824519e+01    1.490277e+00
  1.835632e+01    1.426000e+00
  1.846745e+01    1.445840e+00
  1.857858e+01    1.429237e+00
  1.868971e+01    1.414522e+00
  1.880084e+01    1.383893e+00
  1.891196e+01    1.366032e+00
  1.902309e+01    1.348085e+00
  1.913422e+01    1.357789e+00
  1.924535e+01    1.334886e+00
  1.935648e+01    1.340163e+00
  1.946761e+01    1.328297e+00
  1.957874e+01    1.305929e+00
  1.968987e+01    1.339591e+00
  1.980100e+01    1.296377e+00
  1.991213e+01    1.271324e+00
  2.002325e+01    1.265580e+00
  2.013438e+01    1.251817e+00
  2.024551e+01    1.256186e+00
  2.035664e+01    1.246336e+00
  2.046777e+01    1.203163e+00
  2.057890e+01    1.215014e+00
  2.069003e+01    1.210865e+00
  2.080116e+01    1.184201e+00
  2.091229e+01    1.211731e+00
  2.102342e+01    1.213603e+00
  2.113455e+01    1.221774e+00
  2.124567e+01    1.201953e+00
  2.135680e+01    1.253662e+00
  2.146793e+01    1.370084e+00
  2.157906e+01    1.586023e+00
  2.169019e+01    2.471161e+00
  2.180132e+01    5.695926e+00
  2.191245e+01    8.666073e+00
  2.202358e+01    3.617221e+00
  2.213471e+01    1.872142e+00
  2.224584e+01    1.353080e+00
  2.235696e+01    1.228535e+00
  2.246809e+01    1.157760e+00
  2.257922e+01    1.096275e+00
  2.269035e+01    1.048863e+00
  2.280148e+01    1.040305e+00
  2.291261e+01    1.020473e+00
  2.302374e+01    1.014263e+00
  2.313487e+01    9.960051e-01
  2.324600e+01    9.693266e-01
  2.335713e+01    9.691224e-01
  2.346825e+01    9.538429e-01
  2.357938e+01    9.487433e-01
  2.369051e+01    9.308878e-01
  2.380164e+01    9.084736e-01
  2.391277e+01    9.047717e-01
  2.402390e+01    8.997292e-01
  2.413503e+01    8.503247e-01
  2.424616e+01    8.674316e-01
  2.435729e+01    8.811586e-01
  2.446842e+01    8.842364e-01
  2.457954e+01    8.815538e-01
  2.469067e+01    8.724068e-01
  2.480180e+01    8.896082e-01
  2.491293e+01    8.899205e-01
  2.502406e+01    8.788210e-01
  2.513519e+01    8.645842e-01
  2.524632e+01    9.180306e-01
  2.535745e+01    9.798209e-01
  2.546858e+01    1.026209e+00
  2.557971e+01    1.135803e+00
  2.569083e+01    1.477929e+00
  2.580196e+01    2.753214e+00
  2.591309e+01    6.238068e+00
  2.602422e+01    5.219182e+00
  2.613535e+01    2.117498e+00
  2.624648e+01    1.328947e+00
  2.635761e+01    1.080627e+00
  2.646874e+01    9.931464e-01
  2.657987e+01    9.918821e-01
  2.669100e+01    9.754760e-01
  2.680212e+01    9.856158e-01
  2.691325e+01    9.827862e-01
  2.702438e+01    1.134980e+00
  2.713551e+01    1.699896e+00
  2.724664e+01    2.052721e+00
  2.735777e+01    1.287420e+00
  2.746890e+01    1.018086e+00
  2.758003e+01    9.051847e-01
  2.769116e+01    8.857145e-01
  2.780229e+01    8.886074e-01
  2.791342e+01    8.313531e-01
  2.802454e+01    8.628144e-01
  2.813567e+01    8.523014e-01
  2.824680e+01    8.554562e-01
  2.835793e+01    8.458220e-01
  2.846906e+01    8.251753e-01
  2.858019e+01    8.187748e-01
  2.869132e+01    8.005697e-01
  2.880245e+01    7.859653e-01
  2.891358e+01    8.018124e-01
  2.902471e+01    8.113946e-01
  2.913583e+01    8.142201e-01
  2.924696e+01    7.982543e-01
  2.935809e+01    8.038481e-01
  2.946922e+01    7.952010e-01
  2.958035e+01    7.965521e-01
  2.969148e+01    7.962258e-01
  2.980261e+01    7.798672e-01
  2.991374e+01    7.705041e-01
  3.002487e+01    8.157031e-01
  3.013600e+01    7.977508e-01
  3.024712e+01    7.683277e-01
  3.035825e+01    7.692334e-01
  3.046938e+01    7.558359e-01
  3.058051e+01    7.650631e-01
  3.069164e+01    7.699661e-01
  3.080277e+01    7.840213e-01
  3.091390e+01    7.850903e-01
  3.102503e+01    7.885317e-01
  3.113616e+01    7.911767e-01
  3.124729e+01    7.734154e-01
  3.135841e+01    8.043115e-01
  3.146954e+01    8.212918e-01
  3.158067e+01    8.646581e-01
  3.169180e+01    9.807427e-01
  3.180293e+01    1.429122e+00
  3.191406e+01    2.078851e+00
  3.202519e+01    1.323128e+00
  3.213632e+01    9.079244e-01
  3.224745e+01    8.292719e-01
  3.235858e+01    7.718465e-01
  3.246970e+01    7.681668e-01
  3.254908e+01    7.585546e-01