File: XRD/Reaction conditions/2024-07-27_003_Ru-CGO-ex_Reaction_dwell_000023_data_000148.dat
# == pyFAI calibration ==
# Distance Sample to Detector: 0.4 m
# PONI: 9.750e-02, 1.135e-01 m
# Rotations: -0.000175 0.000000 -0.000000 rad
#
# == Fit2d calibration ==
# Distance Sample-beamCenter: 400.000 mm
# Center: x=1514.000, y=1300.000 pix
# Tilt: 0.010 deg  TiltPlanRot: 0.010 deg
#
# Detector Detector	 Spline= None	 PixelSize= 7.500e-05, 7.500e-05 m
#    Detector has a mask: False
#    Detector has a dark current: False
#    detector has a flat field: False
#
# Wavelength: 6.888e-11 m
# Mask applied: user provided
# Dark current applied: False
# Flat field applied: False
# Polarization factor: 0.99
# Normalization factor: 1.0
# --> /home/myspot/data/2024_07_Rosario/Ru-CGO-ex/2024-07-27_003_Ru-CGO-ex_Reaction_dwell_000023_data_000148.dat
#       q_nm^-1             I
  2.003187e-02    2.418543e-01
  1.311609e-01    1.285986e-01
  2.422899e-01    4.067328e-02
  3.534189e-01    5.449959e-02
  4.645479e-01    1.155779e-02
  5.756770e-01    3.214291e-02
  6.868060e-01    2.952388e-02
  7.979350e-01    1.940847e-01
  9.090640e-01    6.749971e-01
  1.020193e+00    1.283888e+00
  1.131322e+00    1.547920e+00
  1.242451e+00    2.137697e+00
  1.353580e+00    2.748426e+00
  1.464709e+00    2.920280e+00
  1.575838e+00    3.140726e+00
  1.686967e+00    3.087658e+00
  1.798096e+00    3.087183e+00
  1.909225e+00    3.041379e+00
  2.020354e+00    3.063679e+00
  2.131483e+00    3.120975e+00
  2.242612e+00    3.016995e+00
  2.353741e+00    3.179720e+00
  2.464870e+00    3.210473e+00
  2.575999e+00    3.327900e+00
  2.687128e+00    3.289372e+00
  2.798257e+00    3.253570e+00
  2.909386e+00    3.332701e+00
  3.020515e+00    3.411833e+00
  3.131644e+00    3.356715e+00
  3.242773e+00    3.414850e+00
  3.353902e+00    3.450857e+00
  3.465031e+00    3.401847e+00
  3.576160e+00    3.513107e+00
  3.687289e+00    3.521717e+00
  3.798418e+00    3.497098e+00
  3.909547e+00    3.505575e+00
  4.020676e+00    3.627448e+00
  4.131806e+00    3.499973e+00
  4.242935e+00    3.455747e+00
  4.354064e+00    3.572302e+00
  4.465193e+00    3.569489e+00
  4.576322e+00    3.562511e+00
  4.687451e+00    3.631132e+00
  4.798580e+00    3.537566e+00
  4.909709e+00    3.655117e+00
  5.020838e+00    3.663303e+00
  5.131967e+00    3.644800e+00
  5.243096e+00    3.633200e+00
  5.354225e+00    3.708503e+00
  5.465354e+00    3.592144e+00
  5.576483e+00    3.586082e+00
  5.687612e+00    3.570732e+00
  5.798741e+00    3.595027e+00
  5.909870e+00    3.539052e+00
  6.020999e+00    3.449716e+00
  6.132128e+00    3.681919e+00
  6.243257e+00    3.467442e+00
  6.354386e+00    3.525041e+00
  6.465515e+00    3.616843e+00
  6.576644e+00    3.528517e+00
  6.687773e+00    3.587292e+00
  6.798902e+00    3.573023e+00
  6.910031e+00    3.466616e+00
  7.021160e+00    3.554578e+00
  7.132289e+00    3.472344e+00
  7.243418e+00    3.507180e+00
  7.354547e+00    3.525346e+00
  7.465676e+00    3.492073e+00
  7.576805e+00    3.533535e+00
  7.687934e+00    3.362303e+00
  7.799063e+00    3.396461e+00
  7.910192e+00    3.437618e+00
  8.021321e+00    3.412614e+00
  8.132450e+00    3.450935e+00
  8.243579e+00    3.508142e+00
  8.354708e+00    3.342127e+00
  8.465837e+00    3.349012e+00
  8.576966e+00    3.307628e+00
  8.688095e+00    3.340137e+00
  8.799224e+00    3.224673e+00
  8.910353e+00    3.312768e+00
  9.021482e+00    3.335852e+00
  9.132611e+00    3.277040e+00
  9.243740e+00    3.203795e+00
  9.354869e+00    3.266443e+00
  9.465998e+00    3.220322e+00
  9.577127e+00    3.206264e+00
  9.688256e+00    3.158983e+00
  9.799385e+00    3.134795e+00
  9.910514e+00    3.122433e+00
  1.002164e+01    3.072034e+00
  1.013277e+01    3.041427e+00
  1.024390e+01    3.042313e+00
  1.035503e+01    3.075355e+00
  1.046616e+01    3.020662e+00
  1.057729e+01    3.021310e+00
  1.068842e+01    2.908965e+00
  1.079955e+01    3.002633e+00
  1.091068e+01    2.920494e+00
  1.102180e+01    2.857382e+00
  1.113293e+01    2.818644e+00
  1.124406e+01    2.908587e+00
  1.135519e+01    2.831457e+00
  1.146632e+01    2.845079e+00
  1.157745e+01    2.752251e+00
  1.168858e+01    2.802638e+00
  1.179971e+01    2.717237e+00
  1.191084e+01    2.721423e+00
  1.202197e+01    2.715181e+00
  1.213309e+01    2.670090e+00
  1.224422e+01    2.687081e+00
  1.235535e+01    2.708447e+00
  1.246648e+01    2.721393e+00
  1.257761e+01    2.718630e+00
  1.268874e+01    2.825988e+00
  1.279987e+01    3.018585e+00
  1.291100e+01    3.628768e+00
  1.302213e+01    6.656537e+00
  1.313326e+01    1.478547e+01
  1.324438e+01    1.064828e+01
  1.335551e+01    4.424857e+00
  1.346664e+01    3.077332e+00
  1.357777e+01    2.699787e+00
  1.368890e+01    2.538738e+00
  1.380003e+01    2.484908e+00
  1.391116e+01    2.425658e+00
  1.402229e+01    2.321798e+00
  1.413342e+01    2.315654e+00
  1.424455e+01    2.318844e+00
  1.435568e+01    2.241113e+00
  1.446680e+01    2.193578e+00
  1.457793e+01    2.222918e+00
  1.468906e+01    2.134825e+00
  1.480019e+01    2.210067e+00
  1.491132e+01    2.282502e+00
  1.502245e+01    2.463682e+00
  1.513358e+01    3.798740e+00
  1.524471e+01    5.694134e+00
  1.535584e+01    3.696517e+00
  1.546697e+01    2.405244e+00
  1.557809e+01    2.101034e+00
  1.568922e+01    1.959997e+00
  1.580035e+01    1.931396e+00
  1.591148e+01    1.900752e+00
  1.602261e+01    1.852795e+00
  1.613374e+01    1.852137e+00
  1.624487e+01    1.837148e+00
  1.635600e+01    1.814847e+00
  1.646713e+01    1.766260e+00
  1.657826e+01    1.732245e+00
  1.668938e+01    1.707426e+00
  1.680051e+01    1.690995e+00
  1.691164e+01    1.686553e+00
  1.702277e+01    1.649421e+00
  1.713390e+01    1.689760e+00
  1.724503e+01    1.596166e+00
  1.735616e+01    1.597713e+00
  1.746729e+01    1.587218e+00
  1.757842e+01    1.570997e+00
  1.768955e+01    1.525050e+00
  1.780067e+01    1.498483e+00
  1.791180e+01    1.528008e+00
  1.802293e+01    1.478135e+00
  1.813406e+01    1.473752e+00
  1.824519e+01    1.461234e+00
  1.835632e+01    1.429867e+00
  1.846745e+01    1.439125e+00
  1.857858e+01    1.407639e+00
  1.868971e+01    1.396292e+00
  1.880084e+01    1.415845e+00
  1.891196e+01    1.369669e+00
  1.902309e+01    1.372750e+00
  1.913422e+01    1.336196e+00
  1.924535e+01    1.362718e+00
  1.935648e+01    1.358774e+00
  1.946761e+01    1.320759e+00
  1.957874e+01    1.335821e+00
  1.968987e+01    1.306804e+00
  1.980100e+01    1.318458e+00
  1.991213e+01    1.293827e+00
  2.002325e+01    1.269104e+00
  2.013438e+01    1.284198e+00
  2.024551e+01    1.246658e+00
  2.035664e+01    1.267299e+00
  2.046777e+01    1.249772e+00
  2.057890e+01    1.257870e+00
  2.069003e+01    1.241084e+00
  2.080116e+01    1.223962e+00
  2.091229e+01    1.212631e+00
  2.102342e+01    1.232116e+00
  2.113455e+01    1.219311e+00
  2.124567e+01    1.228904e+00
  2.135680e+01    1.282511e+00
  2.146793e+01    1.333571e+00
  2.157906e+01    1.601209e+00
  2.169019e+01    2.497757e+00
  2.180132e+01    5.770561e+00
  2.191245e+01    8.642964e+00
  2.202358e+01    3.645262e+00
  2.213471e+01    1.836723e+00
  2.224584e+01    1.421701e+00
  2.235696e+01    1.232443e+00
  2.246809e+01    1.163421e+00
  2.257922e+01    1.106637e+00
  2.269035e+01    1.081749e+00
  2.280148e+01    1.059548e+00
  2.291261e+01    1.037868e+00
  2.302374e+01    1.003117e+00
  2.313487e+01    1.006373e+00
  2.324600e+01    9.881321e-01
  2.335713e+01    9.683440e-01
  2.346825e+01    9.503365e-01
  2.357938e+01    9.727555e-01
  2.369051e+01    9.421452e-01
  2.380164e+01    9.293462e-01
  2.391277e+01    9.111404e-01
  2.402390e+01    8.946208e-01
  2.413503e+01    8.817173e-01
  2.424616e+01    8.783252e-01
  2.435729e+01    8.972753e-01
  2.446842e+01    9.013170e-01
  2.457954e+01    9.061732e-01
  2.469067e+01    8.800715e-01
  2.480180e+01    8.936082e-01
  2.491293e+01    8.715028e-01
  2.502406e+01    8.980432e-01
  2.513519e+01    9.190539e-01
  2.524632e+01    9.483566e-01
  2.535745e+01    9.565414e-01
  2.546858e+01    1.013352e+00
  2.557971e+01    1.144399e+00
  2.569083e+01    1.519457e+00
  2.580196e+01    2.753250e+00
  2.591309e+01    6.325553e+00
  2.602422e+01    5.291426e+00
  2.613535e+01    2.114095e+00
  2.624648e+01    1.367799e+00
  2.635761e+01    1.076178e+00
  2.646874e+01    1.051288e+00
  2.657987e+01    1.008180e+00
  2.669100e+01    9.740874e-01
  2.680212e+01    9.780004e-01
  2.691325e+01    9.897473e-01
  2.702438e+01    1.151177e+00
  2.713551e+01    1.712172e+00
  2.724664e+01    2.057727e+00
  2.735777e+01    1.273223e+00
  2.746890e+01    1.009382e+00
  2.758003e+01    9.200907e-01
  2.769116e+01    8.996210e-01
  2.780229e+01    8.723447e-01
  2.791342e+01    8.571265e-01
  2.802454e+01    8.627849e-01
  2.813567e+01    8.692703e-01
  2.824680e+01    8.398223e-01
  2.835793e+01    8.373488e-01
  2.846906e+01    8.087517e-01
  2.858019e+01    8.371898e-01
  2.869132e+01    8.361655e-01
  2.880245e+01    8.438781e-01
  2.891358e+01    8.085312e-01
  2.902471e+01    8.121719e-01
  2.913583e+01    8.066134e-01
  2.924696e+01    8.159069e-01
  2.935809e+01    8.192918e-01
  2.946922e+01    7.985158e-01
  2.958035e+01    7.893950e-01
  2.969148e+01    7.948238e-01
  2.980261e+01    7.942364e-01
  2.991374e+01    7.853228e-01
  3.002487e+01    7.918078e-01
  3.013600e+01    8.016499e-01
  3.024712e+01    7.759004e-01
  3.035825e+01    7.696204e-01
  3.046938e+01    7.934588e-01
  3.058051e+01    7.670948e-01
  3.069164e+01    7.684205e-01
  3.080277e+01    7.692092e-01
  3.091390e+01    7.758319e-01
  3.102503e+01    7.854435e-01
  3.113616e+01    7.827514e-01
  3.124729e+01    7.886134e-01
  3.135841e+01    8.152684e-01
  3.146954e+01    8.222940e-01
  3.158067e+01    8.574296e-01
  3.169180e+01    1.002906e+00
  3.180293e+01    1.437849e+00
  3.191406e+01    2.026555e+00
  3.202519e+01    1.319466e+00
  3.213632e+01    9.190271e-01
  3.224745e+01    7.978113e-01
  3.235858e+01    7.752212e-01
  3.246970e+01    7.648720e-01
  3.254908e+01    7.547859e-01