File: XRD/Reaction conditions/2024-07-27_003_Ru-CGO-ex_Reaction_dwell_000023_data_000006.dat
# == pyFAI calibration ==
# Distance Sample to Detector: 0.4 m
# PONI: 9.750e-02, 1.135e-01 m
# Rotations: -0.000175 0.000000 -0.000000 rad
#
# == Fit2d calibration ==
# Distance Sample-beamCenter: 400.000 mm
# Center: x=1514.000, y=1300.000 pix
# Tilt: 0.010 deg  TiltPlanRot: 0.010 deg
#
# Detector Detector	 Spline= None	 PixelSize= 7.500e-05, 7.500e-05 m
#    Detector has a mask: False
#    Detector has a dark current: False
#    detector has a flat field: False
#
# Wavelength: 6.888e-11 m
# Mask applied: user provided
# Dark current applied: False
# Flat field applied: False
# Polarization factor: 0.99
# Normalization factor: 1.0
# --> /home/myspot/data/2024_07_Rosario/Ru-CGO-ex/2024-07-27_003_Ru-CGO-ex_Reaction_dwell_000023_data_000006.dat
#       q_nm^-1             I
  2.003187e-02    0.000000e+00
  1.311609e-01    4.995025e-02
  2.422899e-01    3.920800e-02
  3.534189e-01    7.268341e-02
  4.645479e-01    3.651351e-02
  5.756770e-01    2.279666e-02
  6.868060e-01    2.589289e-02
  7.979350e-01    1.719056e-01
  9.090640e-01    6.005153e-01
  1.020193e+00    1.417198e+00
  1.131322e+00    1.670589e+00
  1.242451e+00    2.274253e+00
  1.353580e+00    2.806805e+00
  1.464709e+00    2.926234e+00
  1.575838e+00    3.203632e+00
  1.686967e+00    3.189608e+00
  1.798096e+00    3.167563e+00
  1.909225e+00    2.999545e+00
  2.020354e+00    3.040137e+00
  2.131483e+00    3.149867e+00
  2.242612e+00    3.065195e+00
  2.353741e+00    3.138288e+00
  2.464870e+00    3.194778e+00
  2.575999e+00    3.254765e+00
  2.687128e+00    3.255548e+00
  2.798257e+00    3.319650e+00
  2.909386e+00    3.451243e+00
  3.020515e+00    3.333829e+00
  3.131644e+00    3.296995e+00
  3.242773e+00    3.389622e+00
  3.353902e+00    3.423685e+00
  3.465031e+00    3.457201e+00
  3.576160e+00    3.461407e+00
  3.687289e+00    3.521945e+00
  3.798418e+00    3.479912e+00
  3.909547e+00    3.510979e+00
  4.020676e+00    3.600919e+00
  4.131806e+00    3.620057e+00
  4.242935e+00    3.608867e+00
  4.354064e+00    3.623455e+00
  4.465193e+00    3.633669e+00
  4.576322e+00    3.623412e+00
  4.687451e+00    3.642554e+00
  4.798580e+00    3.545557e+00
  4.909709e+00    3.657300e+00
  5.020838e+00    3.750172e+00
  5.131967e+00    3.612079e+00
  5.243096e+00    3.686584e+00
  5.354225e+00    3.676372e+00
  5.465354e+00    3.582611e+00
  5.576483e+00    3.602353e+00
  5.687612e+00    3.707289e+00
  5.798741e+00    3.681600e+00
  5.909870e+00    3.580249e+00
  6.020999e+00    3.640151e+00
  6.132128e+00    3.640854e+00
  6.243257e+00    3.639327e+00
  6.354386e+00    3.567876e+00
  6.465515e+00    3.495902e+00
  6.576644e+00    3.696479e+00
  6.687773e+00    3.527830e+00
  6.798902e+00    3.533864e+00
  6.910031e+00    3.609186e+00
  7.021160e+00    3.540739e+00
  7.132289e+00    3.531097e+00
  7.243418e+00    3.499681e+00
  7.354547e+00    3.577751e+00
  7.465676e+00    3.492781e+00
  7.576805e+00    3.560139e+00
  7.687934e+00    3.497339e+00
  7.799063e+00    3.366228e+00
  7.910192e+00    3.428528e+00
  8.021321e+00    3.428466e+00
  8.132450e+00    3.458234e+00
  8.243579e+00    3.472119e+00
  8.354708e+00    3.370336e+00
  8.465837e+00    3.360905e+00
  8.576966e+00    3.348960e+00
  8.688095e+00    3.365799e+00
  8.799224e+00    3.372494e+00
  8.910353e+00    3.410525e+00
  9.021482e+00    3.321726e+00
  9.132611e+00    3.334816e+00
  9.243740e+00    3.251956e+00
  9.354869e+00    3.240991e+00
  9.465998e+00    3.235839e+00
  9.577127e+00    3.240173e+00
  9.688256e+00    3.223294e+00
  9.799385e+00    3.112703e+00
  9.910514e+00    3.159595e+00
  1.002164e+01    3.149417e+00
  1.013277e+01    3.094738e+00
  1.024390e+01    3.080287e+00
  1.035503e+01    3.054648e+00
  1.046616e+01    3.040311e+00
  1.057729e+01    2.967501e+00
  1.068842e+01    2.998277e+00
  1.079955e+01    2.968634e+00
  1.091068e+01    2.966596e+00
  1.102180e+01    2.878136e+00
  1.113293e+01    2.879297e+00
  1.124406e+01    2.903612e+00
  1.135519e+01    2.842047e+00
  1.146632e+01    2.805440e+00
  1.157745e+01    2.842459e+00
  1.168858e+01    2.788965e+00
  1.179971e+01    2.709623e+00
  1.191084e+01    2.756840e+00
  1.202197e+01    2.739324e+00
  1.213309e+01    2.707664e+00
  1.224422e+01    2.709968e+00
  1.235535e+01    2.710919e+00
  1.246648e+01    2.723389e+00
  1.257761e+01    2.745856e+00
  1.268874e+01    2.830737e+00
  1.279987e+01    2.993088e+00
  1.291100e+01    3.715911e+00
  1.302213e+01    6.640928e+00
  1.313326e+01    1.478303e+01
  1.324438e+01    1.064821e+01
  1.335551e+01    4.462873e+00
  1.346664e+01    3.151547e+00
  1.357777e+01    2.743223e+00
  1.368890e+01    2.576783e+00
  1.380003e+01    2.472567e+00
  1.391116e+01    2.437247e+00
  1.402229e+01    2.374805e+00
  1.413342e+01    2.332550e+00
  1.424455e+01    2.291143e+00
  1.435568e+01    2.250983e+00
  1.446680e+01    2.244565e+00
  1.457793e+01    2.230964e+00
  1.468906e+01    2.195926e+00
  1.480019e+01    2.194772e+00
  1.491132e+01    2.207878e+00
  1.502245e+01    2.476506e+00
  1.513358e+01    3.774497e+00
  1.524471e+01    5.703563e+00
  1.535584e+01    3.791767e+00
  1.546697e+01    2.462608e+00
  1.557809e+01    2.161842e+00
  1.568922e+01    2.052079e+00
  1.580035e+01    1.928710e+00
  1.591148e+01    1.947926e+00
  1.602261e+01    1.858709e+00
  1.613374e+01    1.863823e+00
  1.624487e+01    1.834628e+00
  1.635600e+01    1.828310e+00
  1.646713e+01    1.810375e+00
  1.657826e+01    1.746884e+00
  1.668938e+01    1.725103e+00
  1.680051e+01    1.724041e+00
  1.691164e+01    1.701533e+00
  1.702277e+01    1.657328e+00
  1.713390e+01    1.642422e+00
  1.724503e+01    1.634909e+00
  1.735616e+01    1.594776e+00
  1.746729e+01    1.577395e+00
  1.757842e+01    1.581247e+00
  1.768955e+01    1.590509e+00
  1.780067e+01    1.562541e+00
  1.791180e+01    1.529858e+00
  1.802293e+01    1.487625e+00
  1.813406e+01    1.486999e+00
  1.824519e+01    1.493218e+00
  1.835632e+01    1.460273e+00
  1.846745e+01    1.449094e+00
  1.857858e+01    1.454768e+00
  1.868971e+01    1.432330e+00
  1.880084e+01    1.413474e+00
  1.891196e+01    1.422916e+00
  1.902309e+01    1.395667e+00
  1.913422e+01    1.379421e+00
  1.924535e+01    1.355225e+00
  1.935648e+01    1.359852e+00
  1.946761e+01    1.338724e+00
  1.957874e+01    1.319419e+00
  1.968987e+01    1.320319e+00
  1.980100e+01    1.309831e+00
  1.991213e+01    1.298350e+00
  2.002325e+01    1.302577e+00
  2.013438e+01    1.277876e+00
  2.024551e+01    1.258867e+00
  2.035664e+01    1.281829e+00
  2.046777e+01    1.234002e+00
  2.057890e+01    1.240564e+00
  2.069003e+01    1.255522e+00
  2.080116e+01    1.239089e+00
  2.091229e+01    1.241167e+00
  2.102342e+01    1.216555e+00
  2.113455e+01    1.242437e+00
  2.124567e+01    1.231971e+00
  2.135680e+01    1.263227e+00
  2.146793e+01    1.376751e+00
  2.157906e+01    1.610480e+00
  2.169019e+01    2.518092e+00
  2.180132e+01    5.834868e+00
  2.191245e+01    8.764307e+00
  2.202358e+01    3.695521e+00
  2.213471e+01    1.870228e+00
  2.224584e+01    1.412568e+00
  2.235696e+01    1.266490e+00
  2.246809e+01    1.172535e+00
  2.257922e+01    1.115326e+00
  2.269035e+01    1.083808e+00
  2.280148e+01    1.073766e+00
  2.291261e+01    1.035777e+00
  2.302374e+01    1.028364e+00
  2.313487e+01    1.002161e+00
  2.324600e+01    9.872193e-01
  2.335713e+01    9.803181e-01
  2.346825e+01    9.764854e-01
  2.357938e+01    9.693425e-01
  2.369051e+01    9.504297e-01
  2.380164e+01    9.286292e-01
  2.391277e+01    9.122192e-01
  2.402390e+01    9.085263e-01
  2.413503e+01    9.158629e-01
  2.424616e+01    8.845372e-01
  2.435729e+01    8.872277e-01
  2.446842e+01    8.937033e-01
  2.457954e+01    8.963188e-01
  2.469067e+01    8.880830e-01
  2.480180e+01    8.988574e-01
  2.491293e+01    8.889211e-01
  2.502406e+01    9.083802e-01
  2.513519e+01    9.167278e-01
  2.524632e+01    9.387903e-01
  2.535745e+01    9.599349e-01
  2.546858e+01    1.047227e+00
  2.557971e+01    1.157356e+00
  2.569083e+01    1.502382e+00
  2.580196e+01    2.813956e+00
  2.591309e+01    6.268432e+00
  2.602422e+01    5.362032e+00
  2.613535e+01    2.165060e+00
  2.624648e+01    1.357623e+00
  2.635761e+01    1.102121e+00
  2.646874e+01    1.020655e+00
  2.657987e+01    1.005362e+00
  2.669100e+01    9.666662e-01
  2.680212e+01    9.742186e-01
  2.691325e+01    1.002173e+00
  2.702438e+01    1.164747e+00
  2.713551e+01    1.709349e+00
  2.724664e+01    2.098029e+00
  2.735777e+01    1.280782e+00
  2.746890e+01    1.013035e+00
  2.758003e+01    9.416116e-01
  2.769116e+01    9.059744e-01
  2.780229e+01    9.076287e-01
  2.791342e+01    8.874043e-01
  2.802454e+01    8.673052e-01
  2.813567e+01    8.564578e-01
  2.824680e+01    8.623888e-01
  2.835793e+01    8.420433e-01
  2.846906e+01    8.423382e-01
  2.858019e+01    8.558012e-01
  2.869132e+01    8.344777e-01
  2.880245e+01    8.393878e-01
  2.891358e+01    8.297750e-01
  2.902471e+01    8.145286e-01
  2.913583e+01    8.270917e-01
  2.924696e+01    8.233619e-01
  2.935809e+01    7.840210e-01
  2.946922e+01    8.219063e-01
  2.958035e+01    8.008544e-01
  2.969148e+01    8.033966e-01
  2.980261e+01    8.087279e-01
  2.991374e+01    7.953565e-01
  3.002487e+01    8.204011e-01
  3.013600e+01    8.029929e-01
  3.024712e+01    8.026820e-01
  3.035825e+01    7.755936e-01
  3.046938e+01    7.778432e-01
  3.058051e+01    7.987355e-01
  3.069164e+01    7.853484e-01
  3.080277e+01    7.857358e-01
  3.091390e+01    7.887033e-01
  3.102503e+01    8.062688e-01
  3.113616e+01    7.901005e-01
  3.124729e+01    8.021245e-01
  3.135841e+01    8.021120e-01
  3.146954e+01    8.376189e-01
  3.158067e+01    8.731158e-01
  3.169180e+01    9.908895e-01
  3.180293e+01    1.415244e+00
  3.191406e+01    2.057492e+00
  3.202519e+01    1.327071e+00
  3.213632e+01    9.456652e-01
  3.224745e+01    8.447524e-01
  3.235858e+01    8.168045e-01
  3.246970e+01    7.813290e-01
  3.254908e+01    7.787363e-01