File: XRD/Reaction conditions/2024-07-27_003_Ru-CGO-ex_Reaction_dwell_000023_data_000118.dat
# == pyFAI calibration ==
# Distance Sample to Detector: 0.4 m
# PONI: 9.750e-02, 1.135e-01 m
# Rotations: -0.000175 0.000000 -0.000000 rad
#
# == Fit2d calibration ==
# Distance Sample-beamCenter: 400.000 mm
# Center: x=1514.000, y=1300.000 pix
# Tilt: 0.010 deg  TiltPlanRot: 0.010 deg
#
# Detector Detector	 Spline= None	 PixelSize= 7.500e-05, 7.500e-05 m
#    Detector has a mask: False
#    Detector has a dark current: False
#    detector has a flat field: False
#
# Wavelength: 6.888e-11 m
# Mask applied: user provided
# Dark current applied: False
# Flat field applied: False
# Polarization factor: 0.99
# Normalization factor: 1.0
# --> /home/myspot/data/2024_07_Rosario/Ru-CGO-ex/2024-07-27_003_Ru-CGO-ex_Reaction_dwell_000023_data_000118.dat
#       q_nm^-1             I
  2.003187e-02    0.000000e+00
  1.311609e-01    6.786813e-02
  2.422899e-01    2.791178e-02
  3.534189e-01    4.637975e-02
  4.645479e-01    6.084684e-02
  5.756770e-01    3.439911e-02
  6.868060e-01    2.206353e-02
  7.979350e-01    1.747824e-01
  9.090640e-01    5.313410e-01
  1.020193e+00    1.323052e+00
  1.131322e+00    1.588823e+00
  1.242451e+00    2.357862e+00
  1.353580e+00    2.855915e+00
  1.464709e+00    2.976439e+00
  1.575838e+00    3.045937e+00
  1.686967e+00    3.288788e+00
  1.798096e+00    3.194513e+00
  1.909225e+00    3.019737e+00
  2.020354e+00    3.056263e+00
  2.131483e+00    3.091880e+00
  2.242612e+00    3.116199e+00
  2.353741e+00    3.061032e+00
  2.464870e+00    3.191137e+00
  2.575999e+00    3.207274e+00
  2.687128e+00    3.253493e+00
  2.798257e+00    3.306181e+00
  2.909386e+00    3.302972e+00
  3.020515e+00    3.384953e+00
  3.131644e+00    3.345711e+00
  3.242773e+00    3.278837e+00
  3.353902e+00    3.485750e+00
  3.465031e+00    3.467705e+00
  3.576160e+00    3.418156e+00
  3.687289e+00    3.468659e+00
  3.798418e+00    3.528130e+00
  3.909547e+00    3.520506e+00
  4.020676e+00    3.454357e+00
  4.131806e+00    3.517293e+00
  4.242935e+00    3.491195e+00
  4.354064e+00    3.520865e+00
  4.465193e+00    3.547562e+00
  4.576322e+00    3.704278e+00
  4.687451e+00    3.648376e+00
  4.798580e+00    3.630470e+00
  4.909709e+00    3.618813e+00
  5.020838e+00    3.667210e+00
  5.131967e+00    3.723439e+00
  5.243096e+00    3.665071e+00
  5.354225e+00    3.641645e+00
  5.465354e+00    3.652295e+00
  5.576483e+00    3.607821e+00
  5.687612e+00    3.627959e+00
  5.798741e+00    3.467862e+00
  5.909870e+00    3.489822e+00
  6.020999e+00    3.645195e+00
  6.132128e+00    3.627584e+00
  6.243257e+00    3.636835e+00
  6.354386e+00    3.644605e+00
  6.465515e+00    3.541890e+00
  6.576644e+00    3.537870e+00
  6.687773e+00    3.577641e+00
  6.798902e+00    3.546467e+00
  6.910031e+00    3.518766e+00
  7.021160e+00    3.615898e+00
  7.132289e+00    3.540488e+00
  7.243418e+00    3.488709e+00
  7.354547e+00    3.465298e+00
  7.465676e+00    3.472870e+00
  7.576805e+00    3.427128e+00
  7.687934e+00    3.451704e+00
  7.799063e+00    3.456151e+00
  7.910192e+00    3.437989e+00
  8.021321e+00    3.445623e+00
  8.132450e+00    3.467591e+00
  8.243579e+00    3.373460e+00
  8.354708e+00    3.398386e+00
  8.465837e+00    3.332807e+00
  8.576966e+00    3.353767e+00
  8.688095e+00    3.368566e+00
  8.799224e+00    3.360248e+00
  8.910353e+00    3.334653e+00
  9.021482e+00    3.258722e+00
  9.132611e+00    3.256483e+00
  9.243740e+00    3.282023e+00
  9.354869e+00    3.268793e+00
  9.465998e+00    3.196434e+00
  9.577127e+00    3.266423e+00
  9.688256e+00    3.164810e+00
  9.799385e+00    3.144000e+00
  9.910514e+00    3.132147e+00
  1.002164e+01    3.151939e+00
  1.013277e+01    3.076312e+00
  1.024390e+01    3.042554e+00
  1.035503e+01    3.047740e+00
  1.046616e+01    3.043777e+00
  1.057729e+01    3.027986e+00
  1.068842e+01    3.000409e+00
  1.079955e+01    2.933515e+00
  1.091068e+01    2.956378e+00
  1.102180e+01    2.905763e+00
  1.113293e+01    2.918416e+00
  1.124406e+01    2.838499e+00
  1.135519e+01    2.853818e+00
  1.146632e+01    2.788141e+00
  1.157745e+01    2.853775e+00
  1.168858e+01    2.791742e+00
  1.179971e+01    2.752099e+00
  1.191084e+01    2.712332e+00
  1.202197e+01    2.709986e+00
  1.213309e+01    2.654254e+00
  1.224422e+01    2.661361e+00
  1.235535e+01    2.692960e+00
  1.246648e+01    2.677922e+00
  1.257761e+01    2.728184e+00
  1.268874e+01    2.763262e+00
  1.279987e+01    3.007815e+00
  1.291100e+01    3.645089e+00
  1.302213e+01    6.702948e+00
  1.313326e+01    1.498389e+01
  1.324438e+01    1.069917e+01
  1.335551e+01    4.449863e+00
  1.346664e+01    3.151692e+00
  1.357777e+01    2.765731e+00
  1.368890e+01    2.594299e+00
  1.380003e+01    2.412840e+00
  1.391116e+01    2.408042e+00
  1.402229e+01    2.370226e+00
  1.413342e+01    2.340415e+00
  1.424455e+01    2.283400e+00
  1.435568e+01    2.275444e+00
  1.446680e+01    2.232386e+00
  1.457793e+01    2.197013e+00
  1.468906e+01    2.164036e+00
  1.480019e+01    2.215356e+00
  1.491132e+01    2.239570e+00
  1.502245e+01    2.518203e+00
  1.513358e+01    3.831954e+00
  1.524471e+01    5.763994e+00
  1.535584e+01    3.728744e+00
  1.546697e+01    2.436862e+00
  1.557809e+01    2.096744e+00
  1.568922e+01    1.985838e+00
  1.580035e+01    1.951434e+00
  1.591148e+01    1.925566e+00
  1.602261e+01    1.888055e+00
  1.613374e+01    1.825589e+00
  1.624487e+01    1.812970e+00
  1.635600e+01    1.777923e+00
  1.646713e+01    1.779307e+00
  1.657826e+01    1.749377e+00
  1.668938e+01    1.741116e+00
  1.680051e+01    1.719400e+00
  1.691164e+01    1.714151e+00
  1.702277e+01    1.663754e+00
  1.713390e+01    1.653386e+00
  1.724503e+01    1.621338e+00
  1.735616e+01    1.634894e+00
  1.746729e+01    1.606258e+00
  1.757842e+01    1.561035e+00
  1.768955e+01    1.556085e+00
  1.780067e+01    1.529195e+00
  1.791180e+01    1.526017e+00
  1.802293e+01    1.518799e+00
  1.813406e+01    1.494234e+00
  1.824519e+01    1.464171e+00
  1.835632e+01    1.454902e+00
  1.846745e+01    1.432320e+00
  1.857858e+01    1.442560e+00
  1.868971e+01    1.409642e+00
  1.880084e+01    1.391687e+00
  1.891196e+01    1.387149e+00
  1.902309e+01    1.366079e+00
  1.913422e+01    1.375840e+00
  1.924535e+01    1.392433e+00
  1.935648e+01    1.347112e+00
  1.946761e+01    1.373893e+00
  1.957874e+01    1.330713e+00
  1.968987e+01    1.312820e+00
  1.980100e+01    1.286271e+00
  1.991213e+01    1.310755e+00
  2.002325e+01    1.267637e+00
  2.013438e+01    1.244588e+00
  2.024551e+01    1.258208e+00
  2.035664e+01    1.249573e+00
  2.046777e+01    1.250636e+00
  2.057890e+01    1.236448e+00
  2.069003e+01    1.247655e+00
  2.080116e+01    1.240818e+00
  2.091229e+01    1.235844e+00
  2.102342e+01    1.205310e+00
  2.113455e+01    1.212010e+00
  2.124567e+01    1.254441e+00
  2.135680e+01    1.286747e+00
  2.146793e+01    1.363429e+00
  2.157906e+01    1.618514e+00
  2.169019e+01    2.539341e+00
  2.180132e+01    5.825778e+00
  2.191245e+01    8.788350e+00
  2.202358e+01    3.621021e+00
  2.213471e+01    1.875462e+00
  2.224584e+01    1.415453e+00
  2.235696e+01    1.247800e+00
  2.246809e+01    1.165127e+00
  2.257922e+01    1.099862e+00
  2.269035e+01    1.085607e+00
  2.280148e+01    1.050056e+00
  2.291261e+01    1.064424e+00
  2.302374e+01    1.031307e+00
  2.313487e+01    9.954183e-01
  2.324600e+01    9.884528e-01
  2.335713e+01    9.949704e-01
  2.346825e+01    9.638928e-01
  2.357938e+01    9.477656e-01
  2.369051e+01    9.372394e-01
  2.380164e+01    9.268305e-01
  2.391277e+01    9.101084e-01
  2.402390e+01    8.958334e-01
  2.413503e+01    8.811270e-01
  2.424616e+01    8.969957e-01
  2.435729e+01    8.943005e-01
  2.446842e+01    8.883455e-01
  2.457954e+01    8.808780e-01
  2.469067e+01    9.005152e-01
  2.480180e+01    9.071126e-01
  2.491293e+01    9.066003e-01
  2.502406e+01    9.154779e-01
  2.513519e+01    9.200222e-01
  2.524632e+01    9.289556e-01
  2.535745e+01    9.737976e-01
  2.546858e+01    1.058292e+00
  2.557971e+01    1.169306e+00
  2.569083e+01    1.484948e+00
  2.580196e+01    2.805726e+00
  2.591309e+01    6.333903e+00
  2.602422e+01    5.291727e+00
  2.613535e+01    2.131181e+00
  2.624648e+01    1.340872e+00
  2.635761e+01    1.092624e+00
  2.646874e+01    1.037359e+00
  2.657987e+01    9.938042e-01
  2.669100e+01    9.564574e-01
  2.680212e+01    9.536453e-01
  2.691325e+01    1.010537e+00
  2.702438e+01    1.202000e+00
  2.713551e+01    1.671430e+00
  2.724664e+01    2.079626e+00
  2.735777e+01    1.280101e+00
  2.746890e+01    1.026425e+00
  2.758003e+01    9.434126e-01
  2.769116e+01    9.331950e-01
  2.780229e+01    8.578498e-01
  2.791342e+01    8.861285e-01
  2.802454e+01    8.755541e-01
  2.813567e+01    8.496775e-01
  2.824680e+01    8.576671e-01
  2.835793e+01    8.265266e-01
  2.846906e+01    8.204345e-01
  2.858019e+01    8.409824e-01
  2.869132e+01    8.463276e-01
  2.880245e+01    8.293135e-01
  2.891358e+01    8.118346e-01
  2.902471e+01    7.982315e-01
  2.913583e+01    8.169531e-01
  2.924696e+01    8.244282e-01
  2.935809e+01    7.926241e-01
  2.946922e+01    7.976850e-01
  2.958035e+01    8.196267e-01
  2.969148e+01    8.093258e-01
  2.980261e+01    7.961481e-01
  2.991374e+01    8.086138e-01
  3.002487e+01    8.054534e-01
  3.013600e+01    7.784951e-01
  3.024712e+01    7.938037e-01
  3.035825e+01    7.868034e-01
  3.046938e+01    7.806246e-01
  3.058051e+01    7.932447e-01
  3.069164e+01    7.973925e-01
  3.080277e+01    7.679078e-01
  3.091390e+01    7.975439e-01
  3.102503e+01    7.924141e-01
  3.113616e+01    7.879782e-01
  3.124729e+01    8.085999e-01
  3.135841e+01    7.949810e-01
  3.146954e+01    8.404327e-01
  3.158067e+01    8.648426e-01
  3.169180e+01    1.002404e+00
  3.180293e+01    1.454519e+00
  3.191406e+01    2.088120e+00
  3.202519e+01    1.320949e+00
  3.213632e+01    9.263287e-01
  3.224745e+01    8.562138e-01
  3.235858e+01    8.140100e-01
  3.246970e+01    7.969204e-01
  3.254908e+01    7.884983e-01