File: XRD/Reaction conditions/2024-07-27_003_Ru-CGO-ex_Reaction_dwell_000023_data_000157.dat
# == pyFAI calibration ==
# Distance Sample to Detector: 0.4 m
# PONI: 9.750e-02, 1.135e-01 m
# Rotations: -0.000175 0.000000 -0.000000 rad
#
# == Fit2d calibration ==
# Distance Sample-beamCenter: 400.000 mm
# Center: x=1514.000, y=1300.000 pix
# Tilt: 0.010 deg  TiltPlanRot: 0.010 deg
#
# Detector Detector	 Spline= None	 PixelSize= 7.500e-05, 7.500e-05 m
#    Detector has a mask: False
#    Detector has a dark current: False
#    detector has a flat field: False
#
# Wavelength: 6.888e-11 m
# Mask applied: user provided
# Dark current applied: False
# Flat field applied: False
# Polarization factor: 0.99
# Normalization factor: 1.0
# --> /home/myspot/data/2024_07_Rosario/Ru-CGO-ex/2024-07-27_003_Ru-CGO-ex_Reaction_dwell_000023_data_000157.dat
#       q_nm^-1             I
  2.003187e-02    7.711350e-02
  1.311609e-01    3.672853e-02
  2.422899e-01    4.839586e-02
  3.534189e-01    2.952074e-02
  4.645479e-01    8.030410e-03
  5.756770e-01    4.327589e-02
  6.868060e-01    6.339259e-02
  7.979350e-01    2.659024e-01
  9.090640e-01    7.347809e-01
  1.020193e+00    1.266346e+00
  1.131322e+00    1.628776e+00
  1.242451e+00    2.346004e+00
  1.353580e+00    2.779592e+00
  1.464709e+00    2.868129e+00
  1.575838e+00    3.078576e+00
  1.686967e+00    3.052945e+00
  1.798096e+00    3.150421e+00
  1.909225e+00    3.110340e+00
  2.020354e+00    2.982470e+00
  2.131483e+00    2.919359e+00
  2.242612e+00    3.088965e+00
  2.353741e+00    3.148145e+00
  2.464870e+00    3.192625e+00
  2.575999e+00    3.207644e+00
  2.687128e+00    3.309343e+00
  2.798257e+00    3.253499e+00
  2.909386e+00    3.192683e+00
  3.020515e+00    3.303197e+00
  3.131644e+00    3.293561e+00
  3.242773e+00    3.370860e+00
  3.353902e+00    3.391829e+00
  3.465031e+00    3.410629e+00
  3.576160e+00    3.380395e+00
  3.687289e+00    3.508799e+00
  3.798418e+00    3.389049e+00
  3.909547e+00    3.500881e+00
  4.020676e+00    3.503326e+00
  4.131806e+00    3.420654e+00
  4.242935e+00    3.491517e+00
  4.354064e+00    3.487962e+00
  4.465193e+00    3.536638e+00
  4.576322e+00    3.538742e+00
  4.687451e+00    3.592302e+00
  4.798580e+00    3.616560e+00
  4.909709e+00    3.620291e+00
  5.020838e+00    3.663519e+00
  5.131967e+00    3.579846e+00
  5.243096e+00    3.626945e+00
  5.354225e+00    3.724402e+00
  5.465354e+00    3.598634e+00
  5.576483e+00    3.568584e+00
  5.687612e+00    3.606892e+00
  5.798741e+00    3.514585e+00
  5.909870e+00    3.459344e+00
  6.020999e+00    3.443400e+00
  6.132128e+00    3.557657e+00
  6.243257e+00    3.588146e+00
  6.354386e+00    3.562816e+00
  6.465515e+00    3.544890e+00
  6.576644e+00    3.444419e+00
  6.687773e+00    3.543601e+00
  6.798902e+00    3.485127e+00
  6.910031e+00    3.523015e+00
  7.021160e+00    3.534759e+00
  7.132289e+00    3.447510e+00
  7.243418e+00    3.519881e+00
  7.354547e+00    3.494484e+00
  7.465676e+00    3.517522e+00
  7.576805e+00    3.496210e+00
  7.687934e+00    3.425398e+00
  7.799063e+00    3.447296e+00
  7.910192e+00    3.461897e+00
  8.021321e+00    3.428316e+00
  8.132450e+00    3.464607e+00
  8.243579e+00    3.376854e+00
  8.354708e+00    3.363431e+00
  8.465837e+00    3.453548e+00
  8.576966e+00    3.307034e+00
  8.688095e+00    3.322589e+00
  8.799224e+00    3.285395e+00
  8.910353e+00    3.367123e+00
  9.021482e+00    3.238203e+00
  9.132611e+00    3.289344e+00
  9.243740e+00    3.237238e+00
  9.354869e+00    3.250301e+00
  9.465998e+00    3.199767e+00
  9.577127e+00    3.164398e+00
  9.688256e+00    3.169838e+00
  9.799385e+00    3.198075e+00
  9.910514e+00    3.068112e+00
  1.002164e+01    3.096506e+00
  1.013277e+01    3.097493e+00
  1.024390e+01    3.020098e+00
  1.035503e+01    2.976892e+00
  1.046616e+01    3.006709e+00
  1.057729e+01    2.969207e+00
  1.068842e+01    2.987933e+00
  1.079955e+01    2.976062e+00
  1.091068e+01    2.927629e+00
  1.102180e+01    2.915457e+00
  1.113293e+01    2.853059e+00
  1.124406e+01    2.838025e+00
  1.135519e+01    2.757771e+00
  1.146632e+01    2.822522e+00
  1.157745e+01    2.776571e+00
  1.168858e+01    2.762890e+00
  1.179971e+01    2.704404e+00
  1.191084e+01    2.695059e+00
  1.202197e+01    2.751720e+00
  1.213309e+01    2.678050e+00
  1.224422e+01    2.688043e+00
  1.235535e+01    2.649253e+00
  1.246648e+01    2.728021e+00
  1.257761e+01    2.718576e+00
  1.268874e+01    2.764962e+00
  1.279987e+01    3.073865e+00
  1.291100e+01    3.599518e+00
  1.302213e+01    6.717924e+00
  1.313326e+01    1.458794e+01
  1.324438e+01    1.062565e+01
  1.335551e+01    4.368926e+00
  1.346664e+01    3.117729e+00
  1.357777e+01    2.744374e+00
  1.368890e+01    2.523261e+00
  1.380003e+01    2.442814e+00
  1.391116e+01    2.376711e+00
  1.402229e+01    2.351465e+00
  1.413342e+01    2.267192e+00
  1.424455e+01    2.280733e+00
  1.435568e+01    2.240760e+00
  1.446680e+01    2.207289e+00
  1.457793e+01    2.225625e+00
  1.468906e+01    2.180924e+00
  1.480019e+01    2.161458e+00
  1.491132e+01    2.244349e+00
  1.502245e+01    2.479336e+00
  1.513358e+01    3.741525e+00
  1.524471e+01    5.646074e+00
  1.535584e+01    3.729090e+00
  1.546697e+01    2.404307e+00
  1.557809e+01    2.108302e+00
  1.568922e+01    1.980604e+00
  1.580035e+01    1.941020e+00
  1.591148e+01    1.872048e+00
  1.602261e+01    1.842119e+00
  1.613374e+01    1.860883e+00
  1.624487e+01    1.839094e+00
  1.635600e+01    1.774172e+00
  1.646713e+01    1.770337e+00
  1.657826e+01    1.720441e+00
  1.668938e+01    1.738826e+00
  1.680051e+01    1.668369e+00
  1.691164e+01    1.648291e+00
  1.702277e+01    1.671664e+00
  1.713390e+01    1.648839e+00
  1.724503e+01    1.618412e+00
  1.735616e+01    1.574062e+00
  1.746729e+01    1.603140e+00
  1.757842e+01    1.541668e+00
  1.768955e+01    1.535998e+00
  1.780067e+01    1.496953e+00
  1.791180e+01    1.531323e+00
  1.802293e+01    1.480942e+00
  1.813406e+01    1.486336e+00
  1.824519e+01    1.458333e+00
  1.835632e+01    1.451261e+00
  1.846745e+01    1.442272e+00
  1.857858e+01    1.426938e+00
  1.868971e+01    1.407523e+00
  1.880084e+01    1.386433e+00
  1.891196e+01    1.386003e+00
  1.902309e+01    1.380042e+00
  1.913422e+01    1.365026e+00
  1.924535e+01    1.341960e+00
  1.935648e+01    1.332800e+00
  1.946761e+01    1.359183e+00
  1.957874e+01    1.311569e+00
  1.968987e+01    1.327168e+00
  1.980100e+01    1.303810e+00
  1.991213e+01    1.285328e+00
  2.002325e+01    1.246921e+00
  2.013438e+01    1.265454e+00
  2.024551e+01    1.290374e+00
  2.035664e+01    1.253514e+00
  2.046777e+01    1.239675e+00
  2.057890e+01    1.213577e+00
  2.069003e+01    1.250080e+00
  2.080116e+01    1.225600e+00
  2.091229e+01    1.218052e+00
  2.102342e+01    1.234076e+00
  2.113455e+01    1.243869e+00
  2.124567e+01    1.236862e+00
  2.135680e+01    1.266674e+00
  2.146793e+01    1.374077e+00
  2.157906e+01    1.613127e+00
  2.169019e+01    2.483943e+00
  2.180132e+01    5.767590e+00
  2.191245e+01    8.703112e+00
  2.202358e+01    3.645054e+00
  2.213471e+01    1.878933e+00
  2.224584e+01    1.414163e+00
  2.235696e+01    1.267312e+00
  2.246809e+01    1.169939e+00
  2.257922e+01    1.123098e+00
  2.269035e+01    1.074886e+00
  2.280148e+01    1.038918e+00
  2.291261e+01    1.009942e+00
  2.302374e+01    9.938999e-01
  2.313487e+01    1.006056e+00
  2.324600e+01    9.880258e-01
  2.335713e+01    9.953590e-01
  2.346825e+01    9.706680e-01
  2.357938e+01    9.477766e-01
  2.369051e+01    9.369869e-01
  2.380164e+01    8.962559e-01
  2.391277e+01    9.011703e-01
  2.402390e+01    8.981137e-01
  2.413503e+01    8.588085e-01
  2.424616e+01    8.598163e-01
  2.435729e+01    8.992434e-01
  2.446842e+01    8.968318e-01
  2.457954e+01    8.993917e-01
  2.469067e+01    8.859728e-01
  2.480180e+01    8.812351e-01
  2.491293e+01    8.982495e-01
  2.502406e+01    8.972276e-01
  2.513519e+01    8.792796e-01
  2.524632e+01    9.656206e-01
  2.535745e+01    9.545263e-01
  2.546858e+01    1.014602e+00
  2.557971e+01    1.137118e+00
  2.569083e+01    1.491081e+00
  2.580196e+01    2.771175e+00
  2.591309e+01    6.278212e+00
  2.602422e+01    5.258925e+00
  2.613535e+01    2.120801e+00
  2.624648e+01    1.328947e+00
  2.635761e+01    1.107124e+00
  2.646874e+01    9.898590e-01
  2.657987e+01    1.005786e+00
  2.669100e+01    9.329212e-01
  2.680212e+01    9.706689e-01
  2.691325e+01    1.000729e+00
  2.702438e+01    1.142342e+00
  2.713551e+01    1.683407e+00
  2.724664e+01    2.079171e+00
  2.735777e+01    1.281947e+00
  2.746890e+01    1.022444e+00
  2.758003e+01    9.525093e-01
  2.769116e+01    8.874171e-01
  2.780229e+01    8.852853e-01
  2.791342e+01    8.687571e-01
  2.802454e+01    8.675375e-01
  2.813567e+01    8.360547e-01
  2.824680e+01    8.337490e-01
  2.835793e+01    8.541712e-01
  2.846906e+01    8.459027e-01
  2.858019e+01    8.270852e-01
  2.869132e+01    8.206195e-01
  2.880245e+01    8.233818e-01
  2.891358e+01    7.996330e-01
  2.902471e+01    8.126844e-01
  2.913583e+01    8.113384e-01
  2.924696e+01    7.944778e-01
  2.935809e+01    8.014520e-01
  2.946922e+01    7.940635e-01
  2.958035e+01    7.892625e-01
  2.969148e+01    8.101274e-01
  2.980261e+01    7.672473e-01
  2.991374e+01    8.094831e-01
  3.002487e+01    8.271062e-01
  3.013600e+01    7.713233e-01
  3.024712e+01    7.986823e-01
  3.035825e+01    7.750360e-01
  3.046938e+01    7.856634e-01
  3.058051e+01    7.560165e-01
  3.069164e+01    7.497359e-01
  3.080277e+01    7.614495e-01
  3.091390e+01    7.981963e-01
  3.102503e+01    7.784769e-01
  3.113616e+01    7.847000e-01
  3.124729e+01    7.926434e-01
  3.135841e+01    8.030844e-01
  3.146954e+01    7.985606e-01
  3.158067e+01    8.782753e-01
  3.169180e+01    9.666176e-01
  3.180293e+01    1.463378e+00
  3.191406e+01    2.071301e+00
  3.202519e+01    1.347884e+00
  3.213632e+01    9.556105e-01
  3.224745e+01    8.383905e-01
  3.235858e+01    7.864931e-01
  3.246970e+01    7.562611e-01
  3.254908e+01    7.826092e-01