File: XRD/Reaction conditions/2024-07-27_003_Ru-CGO-ex_Reaction_dwell_000023_data_000090.dat
# == pyFAI calibration ==
# Distance Sample to Detector: 0.4 m
# PONI: 9.750e-02, 1.135e-01 m
# Rotations: -0.000175 0.000000 -0.000000 rad
#
# == Fit2d calibration ==
# Distance Sample-beamCenter: 400.000 mm
# Center: x=1514.000, y=1300.000 pix
# Tilt: 0.010 deg  TiltPlanRot: 0.010 deg
#
# Detector Detector	 Spline= None	 PixelSize= 7.500e-05, 7.500e-05 m
#    Detector has a mask: False
#    Detector has a dark current: False
#    detector has a flat field: False
#
# Wavelength: 6.888e-11 m
# Mask applied: user provided
# Dark current applied: False
# Flat field applied: False
# Polarization factor: 0.99
# Normalization factor: 1.0
# --> /home/myspot/data/2024_07_Rosario/Ru-CGO-ex/2024-07-27_003_Ru-CGO-ex_Reaction_dwell_000023_data_000090.dat
#       q_nm^-1             I
  2.003187e-02    0.000000e+00
  1.311609e-01    8.790557e-02
  2.422899e-01    3.961842e-02
  3.534189e-01    3.736715e-02
  4.645479e-01    5.645718e-02
  5.756770e-01    6.317730e-02
  6.868060e-01    2.775591e-02
  7.979350e-01    1.394228e-01
  9.090640e-01    5.559890e-01
  1.020193e+00    1.333377e+00
  1.131322e+00    1.715908e+00
  1.242451e+00    2.439805e+00
  1.353580e+00    2.793945e+00
  1.464709e+00    2.956616e+00
  1.575838e+00    3.157558e+00
  1.686967e+00    3.064933e+00
  1.798096e+00    2.990038e+00
  1.909225e+00    3.101172e+00
  2.020354e+00    2.929384e+00
  2.131483e+00    3.119473e+00
  2.242612e+00    3.146016e+00
  2.353741e+00    3.208337e+00
  2.464870e+00    3.226953e+00
  2.575999e+00    3.201930e+00
  2.687128e+00    3.208849e+00
  2.798257e+00    3.332313e+00
  2.909386e+00    3.275321e+00
  3.020515e+00    3.419086e+00
  3.131644e+00    3.421560e+00
  3.242773e+00    3.461163e+00
  3.353902e+00    3.416922e+00
  3.465031e+00    3.412380e+00
  3.576160e+00    3.456992e+00
  3.687289e+00    3.552490e+00
  3.798418e+00    3.564707e+00
  3.909547e+00    3.479626e+00
  4.020676e+00    3.542777e+00
  4.131806e+00    3.583543e+00
  4.242935e+00    3.544888e+00
  4.354064e+00    3.583346e+00
  4.465193e+00    3.590001e+00
  4.576322e+00    3.587568e+00
  4.687451e+00    3.622508e+00
  4.798580e+00    3.617769e+00
  4.909709e+00    3.623775e+00
  5.020838e+00    3.658741e+00
  5.131967e+00    3.638712e+00
  5.243096e+00    3.710829e+00
  5.354225e+00    3.636720e+00
  5.465354e+00    3.577236e+00
  5.576483e+00    3.547193e+00
  5.687612e+00    3.591339e+00
  5.798741e+00    3.554987e+00
  5.909870e+00    3.493530e+00
  6.020999e+00    3.528771e+00
  6.132128e+00    3.599399e+00
  6.243257e+00    3.533712e+00
  6.354386e+00    3.582664e+00
  6.465515e+00    3.581307e+00
  6.576644e+00    3.561153e+00
  6.687773e+00    3.467628e+00
  6.798902e+00    3.572505e+00
  6.910031e+00    3.528930e+00
  7.021160e+00    3.509273e+00
  7.132289e+00    3.498398e+00
  7.243418e+00    3.489039e+00
  7.354547e+00    3.511478e+00
  7.465676e+00    3.518031e+00
  7.576805e+00    3.518761e+00
  7.687934e+00    3.492343e+00
  7.799063e+00    3.489671e+00
  7.910192e+00    3.452293e+00
  8.021321e+00    3.447003e+00
  8.132450e+00    3.555362e+00
  8.243579e+00    3.519154e+00
  8.354708e+00    3.356037e+00
  8.465837e+00    3.426352e+00
  8.576966e+00    3.388197e+00
  8.688095e+00    3.320279e+00
  8.799224e+00    3.308932e+00
  8.910353e+00    3.325219e+00
  9.021482e+00    3.349473e+00
  9.132611e+00    3.208384e+00
  9.243740e+00    3.281316e+00
  9.354869e+00    3.218162e+00
  9.465998e+00    3.245505e+00
  9.577127e+00    3.263682e+00
  9.688256e+00    3.188945e+00
  9.799385e+00    3.170872e+00
  9.910514e+00    3.187613e+00
  1.002164e+01    3.169939e+00
  1.013277e+01    3.144547e+00
  1.024390e+01    3.073410e+00
  1.035503e+01    2.983526e+00
  1.046616e+01    3.053487e+00
  1.057729e+01    2.978441e+00
  1.068842e+01    3.038910e+00
  1.079955e+01    2.970831e+00
  1.091068e+01    2.958239e+00
  1.102180e+01    2.938573e+00
  1.113293e+01    2.843345e+00
  1.124406e+01    2.880049e+00
  1.135519e+01    2.828637e+00
  1.146632e+01    2.773071e+00
  1.157745e+01    2.805705e+00
  1.168858e+01    2.762451e+00
  1.179971e+01    2.765579e+00
  1.191084e+01    2.781442e+00
  1.202197e+01    2.717513e+00
  1.213309e+01    2.666484e+00
  1.224422e+01    2.680937e+00
  1.235535e+01    2.702650e+00
  1.246648e+01    2.718867e+00
  1.257761e+01    2.743564e+00
  1.268874e+01    2.764578e+00
  1.279987e+01    3.046509e+00
  1.291100e+01    3.635810e+00
  1.302213e+01    6.784907e+00
  1.313326e+01    1.491074e+01
  1.324438e+01    1.080178e+01
  1.335551e+01    4.459538e+00
  1.346664e+01    3.104743e+00
  1.357777e+01    2.719368e+00
  1.368890e+01    2.584189e+00
  1.380003e+01    2.470099e+00
  1.391116e+01    2.379930e+00
  1.402229e+01    2.387916e+00
  1.413342e+01    2.308120e+00
  1.424455e+01    2.289752e+00
  1.435568e+01    2.295641e+00
  1.446680e+01    2.258890e+00
  1.457793e+01    2.230156e+00
  1.468906e+01    2.242358e+00
  1.480019e+01    2.214278e+00
  1.491132e+01    2.268359e+00
  1.502245e+01    2.508653e+00
  1.513358e+01    3.757587e+00
  1.524471e+01    5.817499e+00
  1.535584e+01    3.744070e+00
  1.546697e+01    2.442619e+00
  1.557809e+01    2.125466e+00
  1.568922e+01    2.013870e+00
  1.580035e+01    1.940176e+00
  1.591148e+01    1.938355e+00
  1.602261e+01    1.913355e+00
  1.613374e+01    1.830923e+00
  1.624487e+01    1.799244e+00
  1.635600e+01    1.788844e+00
  1.646713e+01    1.761313e+00
  1.657826e+01    1.757547e+00
  1.668938e+01    1.759275e+00
  1.680051e+01    1.680924e+00
  1.691164e+01    1.709232e+00
  1.702277e+01    1.703780e+00
  1.713390e+01    1.642999e+00
  1.724503e+01    1.638165e+00
  1.735616e+01    1.642147e+00
  1.746729e+01    1.599658e+00
  1.757842e+01    1.573248e+00
  1.768955e+01    1.561820e+00
  1.780067e+01    1.521887e+00
  1.791180e+01    1.524688e+00
  1.802293e+01    1.525669e+00
  1.813406e+01    1.488476e+00
  1.824519e+01    1.482312e+00
  1.835632e+01    1.482200e+00
  1.846745e+01    1.445113e+00
  1.857858e+01    1.445330e+00
  1.868971e+01    1.412809e+00
  1.880084e+01    1.443143e+00
  1.891196e+01    1.417563e+00
  1.902309e+01    1.376495e+00
  1.913422e+01    1.398138e+00
  1.924535e+01    1.366208e+00
  1.935648e+01    1.366473e+00
  1.946761e+01    1.363955e+00
  1.957874e+01    1.329988e+00
  1.968987e+01    1.293541e+00
  1.980100e+01    1.283423e+00
  1.991213e+01    1.289418e+00
  2.002325e+01    1.300658e+00
  2.013438e+01    1.255702e+00
  2.024551e+01    1.265020e+00
  2.035664e+01    1.241449e+00
  2.046777e+01    1.275366e+00
  2.057890e+01    1.230519e+00
  2.069003e+01    1.202587e+00
  2.080116e+01    1.213607e+00
  2.091229e+01    1.223274e+00
  2.102342e+01    1.225038e+00
  2.113455e+01    1.217265e+00
  2.124567e+01    1.236414e+00
  2.135680e+01    1.318701e+00
  2.146793e+01    1.425406e+00
  2.157906e+01    1.611733e+00
  2.169019e+01    2.501330e+00
  2.180132e+01    5.836247e+00
  2.191245e+01    8.850184e+00
  2.202358e+01    3.628411e+00
  2.213471e+01    1.878631e+00
  2.224584e+01    1.428320e+00
  2.235696e+01    1.273703e+00
  2.246809e+01    1.157317e+00
  2.257922e+01    1.108428e+00
  2.269035e+01    1.107534e+00
  2.280148e+01    1.049134e+00
  2.291261e+01    1.047098e+00
  2.302374e+01    1.018508e+00
  2.313487e+01    9.909171e-01
  2.324600e+01    9.866049e-01
  2.335713e+01    9.667086e-01
  2.346825e+01    9.800705e-01
  2.357938e+01    9.561216e-01
  2.369051e+01    9.237136e-01
  2.380164e+01    9.115537e-01
  2.391277e+01    9.178995e-01
  2.402390e+01    8.922360e-01
  2.413503e+01    8.814818e-01
  2.424616e+01    8.768957e-01
  2.435729e+01    8.756493e-01
  2.446842e+01    8.786067e-01
  2.457954e+01    8.809115e-01
  2.469067e+01    8.890029e-01
  2.480180e+01    8.898398e-01
  2.491293e+01    8.960561e-01
  2.502406e+01    8.921005e-01
  2.513519e+01    9.147266e-01
  2.524632e+01    9.344504e-01
  2.535745e+01    9.695237e-01
  2.546858e+01    1.046441e+00
  2.557971e+01    1.164535e+00
  2.569083e+01    1.525239e+00
  2.580196e+01    2.806213e+00
  2.591309e+01    6.325573e+00
  2.602422e+01    5.302616e+00
  2.613535e+01    2.188134e+00
  2.624648e+01    1.333469e+00
  2.635761e+01    1.134627e+00
  2.646874e+01    1.006003e+00
  2.657987e+01    9.822300e-01
  2.669100e+01    9.800358e-01
  2.680212e+01    9.767786e-01
  2.691325e+01    1.015649e+00
  2.702438e+01    1.151767e+00
  2.713551e+01    1.720967e+00
  2.724664e+01    2.106755e+00
  2.735777e+01    1.273494e+00
  2.746890e+01    1.020477e+00
  2.758003e+01    9.300364e-01
  2.769116e+01    8.953105e-01
  2.780229e+01    8.929662e-01
  2.791342e+01    8.900134e-01
  2.802454e+01    8.558078e-01
  2.813567e+01    8.383394e-01
  2.824680e+01    8.722133e-01
  2.835793e+01    8.540904e-01
  2.846906e+01    8.620988e-01
  2.858019e+01    8.374535e-01
  2.869132e+01    8.337921e-01
  2.880245e+01    8.249256e-01
  2.891358e+01    8.362840e-01
  2.902471e+01    8.334225e-01
  2.913583e+01    7.965294e-01
  2.924696e+01    8.072938e-01
  2.935809e+01    8.060056e-01
  2.946922e+01    8.116454e-01
  2.958035e+01    8.092345e-01
  2.969148e+01    8.004072e-01
  2.980261e+01    7.958231e-01
  2.991374e+01    7.791934e-01
  3.002487e+01    8.085790e-01
  3.013600e+01    8.213066e-01
  3.024712e+01    7.856512e-01
  3.035825e+01    7.939442e-01
  3.046938e+01    7.793019e-01
  3.058051e+01    8.073383e-01
  3.069164e+01    7.861239e-01
  3.080277e+01    7.866346e-01
  3.091390e+01    7.958460e-01
  3.102503e+01    8.044723e-01
  3.113616e+01    8.008892e-01
  3.124729e+01    8.033516e-01
  3.135841e+01    8.030209e-01
  3.146954e+01    8.232686e-01
  3.158067e+01    8.525763e-01
  3.169180e+01    9.968965e-01
  3.180293e+01    1.487891e+00
  3.191406e+01    2.125889e+00
  3.202519e+01    1.322681e+00
  3.213632e+01    9.218708e-01
  3.224745e+01    8.259428e-01
  3.235858e+01    8.117750e-01
  3.246970e+01    7.693289e-01
  3.254908e+01    7.843276e-01