File: XRD/Reaction conditions/2024-07-27_003_Ru-CGO-ex_Reaction_dwell_000023_data_000155.dat
# == pyFAI calibration ==
# Distance Sample to Detector: 0.4 m
# PONI: 9.750e-02, 1.135e-01 m
# Rotations: -0.000175 0.000000 -0.000000 rad
#
# == Fit2d calibration ==
# Distance Sample-beamCenter: 400.000 mm
# Center: x=1514.000, y=1300.000 pix
# Tilt: 0.010 deg  TiltPlanRot: 0.010 deg
#
# Detector Detector	 Spline= None	 PixelSize= 7.500e-05, 7.500e-05 m
#    Detector has a mask: False
#    Detector has a dark current: False
#    detector has a flat field: False
#
# Wavelength: 6.888e-11 m
# Mask applied: user provided
# Dark current applied: False
# Flat field applied: False
# Polarization factor: 0.99
# Normalization factor: 1.0
# --> /home/myspot/data/2024_07_Rosario/Ru-CGO-ex/2024-07-27_003_Ru-CGO-ex_Reaction_dwell_000023_data_000155.dat
#       q_nm^-1             I
  2.003187e-02    1.647358e-01
  1.311609e-01    2.083884e-02
  2.422899e-01    2.587942e-02
  3.534189e-01    3.266139e-02
  4.645479e-01    2.251792e-02
  5.756770e-01    2.020372e-02
  6.868060e-01    2.818624e-02
  7.979350e-01    1.398253e-01
  9.090640e-01    7.340568e-01
  1.020193e+00    1.412359e+00
  1.131322e+00    1.663692e+00
  1.242451e+00    2.359246e+00
  1.353580e+00    2.857318e+00
  1.464709e+00    2.945332e+00
  1.575838e+00    3.321977e+00
  1.686967e+00    2.944808e+00
  1.798096e+00    3.021416e+00
  1.909225e+00    2.996119e+00
  2.020354e+00    3.077032e+00
  2.131483e+00    3.120456e+00
  2.242612e+00    3.191899e+00
  2.353741e+00    3.107557e+00
  2.464870e+00    3.011057e+00
  2.575999e+00    3.230310e+00
  2.687128e+00    3.216561e+00
  2.798257e+00    3.285903e+00
  2.909386e+00    3.403797e+00
  3.020515e+00    3.313756e+00
  3.131644e+00    3.303298e+00
  3.242773e+00    3.442458e+00
  3.353902e+00    3.358227e+00
  3.465031e+00    3.473255e+00
  3.576160e+00    3.463947e+00
  3.687289e+00    3.520475e+00
  3.798418e+00    3.518889e+00
  3.909547e+00    3.544979e+00
  4.020676e+00    3.473998e+00
  4.131806e+00    3.566747e+00
  4.242935e+00    3.530294e+00
  4.354064e+00    3.572731e+00
  4.465193e+00    3.618947e+00
  4.576322e+00    3.566731e+00
  4.687451e+00    3.577865e+00
  4.798580e+00    3.596421e+00
  4.909709e+00    3.574601e+00
  5.020838e+00    3.611097e+00
  5.131967e+00    3.635451e+00
  5.243096e+00    3.616201e+00
  5.354225e+00    3.682045e+00
  5.465354e+00    3.536341e+00
  5.576483e+00    3.618109e+00
  5.687612e+00    3.607330e+00
  5.798741e+00    3.591541e+00
  5.909870e+00    3.560095e+00
  6.020999e+00    3.513788e+00
  6.132128e+00    3.611732e+00
  6.243257e+00    3.528587e+00
  6.354386e+00    3.522415e+00
  6.465515e+00    3.528830e+00
  6.576644e+00    3.537214e+00
  6.687773e+00    3.392923e+00
  6.798902e+00    3.567396e+00
  6.910031e+00    3.487093e+00
  7.021160e+00    3.470781e+00
  7.132289e+00    3.457817e+00
  7.243418e+00    3.533256e+00
  7.354547e+00    3.463909e+00
  7.465676e+00    3.437309e+00
  7.576805e+00    3.399295e+00
  7.687934e+00    3.380457e+00
  7.799063e+00    3.504259e+00
  7.910192e+00    3.439832e+00
  8.021321e+00    3.364673e+00
  8.132450e+00    3.414218e+00
  8.243579e+00    3.473487e+00
  8.354708e+00    3.342682e+00
  8.465837e+00    3.345923e+00
  8.576966e+00    3.351542e+00
  8.688095e+00    3.279853e+00
  8.799224e+00    3.355662e+00
  8.910353e+00    3.326014e+00
  9.021482e+00    3.293164e+00
  9.132611e+00    3.233573e+00
  9.243740e+00    3.297328e+00
  9.354869e+00    3.207912e+00
  9.465998e+00    3.221488e+00
  9.577127e+00    3.194427e+00
  9.688256e+00    3.171823e+00
  9.799385e+00    3.134006e+00
  9.910514e+00    3.160092e+00
  1.002164e+01    3.078949e+00
  1.013277e+01    3.083489e+00
  1.024390e+01    3.057003e+00
  1.035503e+01    3.075472e+00
  1.046616e+01    3.059227e+00
  1.057729e+01    2.945789e+00
  1.068842e+01    3.002247e+00
  1.079955e+01    2.911174e+00
  1.091068e+01    2.927307e+00
  1.102180e+01    2.924321e+00
  1.113293e+01    2.866251e+00
  1.124406e+01    2.821536e+00
  1.135519e+01    2.837583e+00
  1.146632e+01    2.824456e+00
  1.157745e+01    2.803774e+00
  1.168858e+01    2.716171e+00
  1.179971e+01    2.701941e+00
  1.191084e+01    2.708315e+00
  1.202197e+01    2.720710e+00
  1.213309e+01    2.719422e+00
  1.224422e+01    2.712765e+00
  1.235535e+01    2.677940e+00
  1.246648e+01    2.658854e+00
  1.257761e+01    2.732714e+00
  1.268874e+01    2.822829e+00
  1.279987e+01    2.962726e+00
  1.291100e+01    3.598743e+00
  1.302213e+01    6.656629e+00
  1.313326e+01    1.468019e+01
  1.324438e+01    1.066395e+01
  1.335551e+01    4.423205e+00
  1.346664e+01    3.139454e+00
  1.357777e+01    2.725672e+00
  1.368890e+01    2.566056e+00
  1.380003e+01    2.460379e+00
  1.391116e+01    2.426898e+00
  1.402229e+01    2.347017e+00
  1.413342e+01    2.319582e+00
  1.424455e+01    2.302206e+00
  1.435568e+01    2.259481e+00
  1.446680e+01    2.218189e+00
  1.457793e+01    2.244264e+00
  1.468906e+01    2.174886e+00
  1.480019e+01    2.238497e+00
  1.491132e+01    2.220416e+00
  1.502245e+01    2.471091e+00
  1.513358e+01    3.801641e+00
  1.524471e+01    5.727172e+00
  1.535584e+01    3.748454e+00
  1.546697e+01    2.390368e+00
  1.557809e+01    2.081600e+00
  1.568922e+01    2.011197e+00
  1.580035e+01    1.921325e+00
  1.591148e+01    1.913861e+00
  1.602261e+01    1.858297e+00
  1.613374e+01    1.855908e+00
  1.624487e+01    1.845029e+00
  1.635600e+01    1.765817e+00
  1.646713e+01    1.791134e+00
  1.657826e+01    1.775584e+00
  1.668938e+01    1.729198e+00
  1.680051e+01    1.692406e+00
  1.691164e+01    1.673201e+00
  1.702277e+01    1.684054e+00
  1.713390e+01    1.604590e+00
  1.724503e+01    1.624866e+00
  1.735616e+01    1.598173e+00
  1.746729e+01    1.595636e+00
  1.757842e+01    1.569144e+00
  1.768955e+01    1.544750e+00
  1.780067e+01    1.549825e+00
  1.791180e+01    1.474673e+00
  1.802293e+01    1.516845e+00
  1.813406e+01    1.485444e+00
  1.824519e+01    1.517495e+00
  1.835632e+01    1.452488e+00
  1.846745e+01    1.465757e+00
  1.857858e+01    1.448785e+00
  1.868971e+01    1.419158e+00
  1.880084e+01    1.412097e+00
  1.891196e+01    1.364164e+00
  1.902309e+01    1.346624e+00
  1.913422e+01    1.384548e+00
  1.924535e+01    1.363017e+00
  1.935648e+01    1.374950e+00
  1.946761e+01    1.325904e+00
  1.957874e+01    1.348097e+00
  1.968987e+01    1.311550e+00
  1.980100e+01    1.286258e+00
  1.991213e+01    1.304390e+00
  2.002325e+01    1.263633e+00
  2.013438e+01    1.303662e+00
  2.024551e+01    1.279168e+00
  2.035664e+01    1.249424e+00
  2.046777e+01    1.230163e+00
  2.057890e+01    1.212830e+00
  2.069003e+01    1.243267e+00
  2.080116e+01    1.221425e+00
  2.091229e+01    1.216142e+00
  2.102342e+01    1.208965e+00
  2.113455e+01    1.228780e+00
  2.124567e+01    1.262736e+00
  2.135680e+01    1.274433e+00
  2.146793e+01    1.352018e+00
  2.157906e+01    1.621205e+00
  2.169019e+01    2.490771e+00
  2.180132e+01    5.786131e+00
  2.191245e+01    8.734750e+00
  2.202358e+01    3.623705e+00
  2.213471e+01    1.844100e+00
  2.224584e+01    1.387849e+00
  2.235696e+01    1.247446e+00
  2.246809e+01    1.168795e+00
  2.257922e+01    1.127207e+00
  2.269035e+01    1.062463e+00
  2.280148e+01    1.045662e+00
  2.291261e+01    1.026377e+00
  2.302374e+01    1.006503e+00
  2.313487e+01    9.812551e-01
  2.324600e+01    9.741490e-01
  2.335713e+01    9.746374e-01
  2.346825e+01    9.558557e-01
  2.357938e+01    9.409101e-01
  2.369051e+01    9.252689e-01
  2.380164e+01    9.327348e-01
  2.391277e+01    9.131694e-01
  2.402390e+01    9.168231e-01
  2.413503e+01    8.907261e-01
  2.424616e+01    8.645489e-01
  2.435729e+01    9.026160e-01
  2.446842e+01    8.919252e-01
  2.457954e+01    8.874936e-01
  2.469067e+01    8.760881e-01
  2.480180e+01    8.956707e-01
  2.491293e+01    9.109020e-01
  2.502406e+01    8.863280e-01
  2.513519e+01    9.088714e-01
  2.524632e+01    9.584334e-01
  2.535745e+01    9.665425e-01
  2.546858e+01    1.049955e+00
  2.557971e+01    1.145724e+00
  2.569083e+01    1.502684e+00
  2.580196e+01    2.804364e+00
  2.591309e+01    6.250332e+00
  2.602422e+01    5.308726e+00
  2.613535e+01    2.113881e+00
  2.624648e+01    1.347195e+00
  2.635761e+01    1.112658e+00
  2.646874e+01    1.008862e+00
  2.657987e+01    9.904424e-01
  2.669100e+01    9.558351e-01
  2.680212e+01    9.670866e-01
  2.691325e+01    1.000643e+00
  2.702438e+01    1.125636e+00
  2.713551e+01    1.735891e+00
  2.724664e+01    2.102305e+00
  2.735777e+01    1.274778e+00
  2.746890e+01    1.025454e+00
  2.758003e+01    9.588522e-01
  2.769116e+01    9.167457e-01
  2.780229e+01    8.843373e-01
  2.791342e+01    8.766198e-01
  2.802454e+01    8.713451e-01
  2.813567e+01    8.658396e-01
  2.824680e+01    8.547778e-01
  2.835793e+01    8.375329e-01
  2.846906e+01    8.371955e-01
  2.858019e+01    8.214858e-01
  2.869132e+01    8.285043e-01
  2.880245e+01    8.300797e-01
  2.891358e+01    8.331978e-01
  2.902471e+01    8.112459e-01
  2.913583e+01    8.161828e-01
  2.924696e+01    8.137278e-01
  2.935809e+01    8.412008e-01
  2.946922e+01    7.959997e-01
  2.958035e+01    8.029854e-01
  2.969148e+01    7.865223e-01
  2.980261e+01    7.850474e-01
  2.991374e+01    8.126253e-01
  3.002487e+01    7.927608e-01
  3.013600e+01    7.937073e-01
  3.024712e+01    7.619804e-01
  3.035825e+01    7.872484e-01
  3.046938e+01    7.940750e-01
  3.058051e+01    7.455629e-01
  3.069164e+01    7.619529e-01
  3.080277e+01    7.998657e-01
  3.091390e+01    7.593369e-01
  3.102503e+01    7.850868e-01
  3.113616e+01    7.855402e-01
  3.124729e+01    8.002949e-01
  3.135841e+01    7.960964e-01
  3.146954e+01    8.261804e-01
  3.158067e+01    8.700581e-01
  3.169180e+01    9.824627e-01
  3.180293e+01    1.495977e+00
  3.191406e+01    2.078063e+00
  3.202519e+01    1.284553e+00
  3.213632e+01    9.403581e-01
  3.224745e+01    8.336821e-01
  3.235858e+01    7.879818e-01
  3.246970e+01    7.779305e-01
  3.254908e+01    7.487108e-01