File: XRD/Reaction conditions/2024-07-27_003_Ru-CGO-ex_Reaction_dwell_000023_data_000042.dat
# == pyFAI calibration ==
# Distance Sample to Detector: 0.4 m
# PONI: 9.750e-02, 1.135e-01 m
# Rotations: -0.000175 0.000000 -0.000000 rad
#
# == Fit2d calibration ==
# Distance Sample-beamCenter: 400.000 mm
# Center: x=1514.000, y=1300.000 pix
# Tilt: 0.010 deg  TiltPlanRot: 0.010 deg
#
# Detector Detector	 Spline= None	 PixelSize= 7.500e-05, 7.500e-05 m
#    Detector has a mask: False
#    Detector has a dark current: False
#    detector has a flat field: False
#
# Wavelength: 6.888e-11 m
# Mask applied: user provided
# Dark current applied: False
# Flat field applied: False
# Polarization factor: 0.99
# Normalization factor: 1.0
# --> /home/myspot/data/2024_07_Rosario/Ru-CGO-ex/2024-07-27_003_Ru-CGO-ex_Reaction_dwell_000023_data_000042.dat
#       q_nm^-1             I
  2.003187e-02    1.424646e-01
  1.311609e-01    1.278702e-01
  2.422899e-01    4.441640e-02
  3.534189e-01    1.673928e-02
  4.645479e-01    4.813151e-02
  5.756770e-01    3.754517e-02
  6.868060e-01    5.868392e-02
  7.979350e-01    1.509267e-01
  9.090640e-01    5.961905e-01
  1.020193e+00    1.317094e+00
  1.131322e+00    1.755441e+00
  1.242451e+00    2.410750e+00
  1.353580e+00    2.727205e+00
  1.464709e+00    3.067439e+00
  1.575838e+00    3.129408e+00
  1.686967e+00    3.222066e+00
  1.798096e+00    3.060568e+00
  1.909225e+00    3.073171e+00
  2.020354e+00    3.102171e+00
  2.131483e+00    3.141143e+00
  2.242612e+00    3.019169e+00
  2.353741e+00    3.184085e+00
  2.464870e+00    3.265572e+00
  2.575999e+00    3.236279e+00
  2.687128e+00    3.338272e+00
  2.798257e+00    3.257263e+00
  2.909386e+00    3.310384e+00
  3.020515e+00    3.473860e+00
  3.131644e+00    3.424565e+00
  3.242773e+00    3.363758e+00
  3.353902e+00    3.527765e+00
  3.465031e+00    3.425424e+00
  3.576160e+00    3.388999e+00
  3.687289e+00    3.575505e+00
  3.798418e+00    3.441582e+00
  3.909547e+00    3.453675e+00
  4.020676e+00    3.658926e+00
  4.131806e+00    3.567502e+00
  4.242935e+00    3.611468e+00
  4.354064e+00    3.576642e+00
  4.465193e+00    3.547013e+00
  4.576322e+00    3.596808e+00
  4.687451e+00    3.679705e+00
  4.798580e+00    3.644886e+00
  4.909709e+00    3.760032e+00
  5.020838e+00    3.682757e+00
  5.131967e+00    3.709965e+00
  5.243096e+00    3.665625e+00
  5.354225e+00    3.699527e+00
  5.465354e+00    3.674776e+00
  5.576483e+00    3.666658e+00
  5.687612e+00    3.590773e+00
  5.798741e+00    3.571148e+00
  5.909870e+00    3.557122e+00
  6.020999e+00    3.515705e+00
  6.132128e+00    3.649507e+00
  6.243257e+00    3.559290e+00
  6.354386e+00    3.625737e+00
  6.465515e+00    3.566799e+00
  6.576644e+00    3.569823e+00
  6.687773e+00    3.579563e+00
  6.798902e+00    3.648098e+00
  6.910031e+00    3.533196e+00
  7.021160e+00    3.636237e+00
  7.132289e+00    3.456056e+00
  7.243418e+00    3.532419e+00
  7.354547e+00    3.490796e+00
  7.465676e+00    3.587019e+00
  7.576805e+00    3.443710e+00
  7.687934e+00    3.529722e+00
  7.799063e+00    3.437016e+00
  7.910192e+00    3.413394e+00
  8.021321e+00    3.419657e+00
  8.132450e+00    3.440338e+00
  8.243579e+00    3.493343e+00
  8.354708e+00    3.420307e+00
  8.465837e+00    3.403649e+00
  8.576966e+00    3.399707e+00
  8.688095e+00    3.332811e+00
  8.799224e+00    3.390459e+00
  8.910353e+00    3.418749e+00
  9.021482e+00    3.304703e+00
  9.132611e+00    3.279320e+00
  9.243740e+00    3.277844e+00
  9.354869e+00    3.327855e+00
  9.465998e+00    3.267663e+00
  9.577127e+00    3.273452e+00
  9.688256e+00    3.240007e+00
  9.799385e+00    3.200963e+00
  9.910514e+00    3.192353e+00
  1.002164e+01    3.075215e+00
  1.013277e+01    3.095929e+00
  1.024390e+01    3.074147e+00
  1.035503e+01    3.015404e+00
  1.046616e+01    2.994142e+00
  1.057729e+01    2.974437e+00
  1.068842e+01    2.978587e+00
  1.079955e+01    2.935993e+00
  1.091068e+01    2.947794e+00
  1.102180e+01    2.906471e+00
  1.113293e+01    2.869567e+00
  1.124406e+01    2.873194e+00
  1.135519e+01    2.833530e+00
  1.146632e+01    2.815047e+00
  1.157745e+01    2.791524e+00
  1.168858e+01    2.799731e+00
  1.179971e+01    2.699816e+00
  1.191084e+01    2.752777e+00
  1.202197e+01    2.729671e+00
  1.213309e+01    2.712481e+00
  1.224422e+01    2.717179e+00
  1.235535e+01    2.677245e+00
  1.246648e+01    2.688687e+00
  1.257761e+01    2.774066e+00
  1.268874e+01    2.855049e+00
  1.279987e+01    3.030762e+00
  1.291100e+01    3.657577e+00
  1.302213e+01    6.758792e+00
  1.313326e+01    1.489778e+01
  1.324438e+01    1.077262e+01
  1.335551e+01    4.469075e+00
  1.346664e+01    3.150103e+00
  1.357777e+01    2.775215e+00
  1.368890e+01    2.592109e+00
  1.380003e+01    2.500833e+00
  1.391116e+01    2.448123e+00
  1.402229e+01    2.394050e+00
  1.413342e+01    2.358026e+00
  1.424455e+01    2.284070e+00
  1.435568e+01    2.255922e+00
  1.446680e+01    2.214144e+00
  1.457793e+01    2.228834e+00
  1.468906e+01    2.214879e+00
  1.480019e+01    2.212051e+00
  1.491132e+01    2.261662e+00
  1.502245e+01    2.515582e+00
  1.513358e+01    3.848511e+00
  1.524471e+01    5.781079e+00
  1.535584e+01    3.794161e+00
  1.546697e+01    2.432653e+00
  1.557809e+01    2.150286e+00
  1.568922e+01    2.021952e+00
  1.580035e+01    1.942592e+00
  1.591148e+01    1.896009e+00
  1.602261e+01    1.867619e+00
  1.613374e+01    1.826138e+00
  1.624487e+01    1.831163e+00
  1.635600e+01    1.770224e+00
  1.646713e+01    1.786672e+00
  1.657826e+01    1.719079e+00
  1.668938e+01    1.702178e+00
  1.680051e+01    1.742727e+00
  1.691164e+01    1.710973e+00
  1.702277e+01    1.661269e+00
  1.713390e+01    1.629892e+00
  1.724503e+01    1.606480e+00
  1.735616e+01    1.601922e+00
  1.746729e+01    1.593664e+00
  1.757842e+01    1.622936e+00
  1.768955e+01    1.560856e+00
  1.780067e+01    1.527055e+00
  1.791180e+01    1.544231e+00
  1.802293e+01    1.529810e+00
  1.813406e+01    1.501989e+00
  1.824519e+01    1.471002e+00
  1.835632e+01    1.473930e+00
  1.846745e+01    1.448983e+00
  1.857858e+01    1.466013e+00
  1.868971e+01    1.442446e+00
  1.880084e+01    1.435643e+00
  1.891196e+01    1.419457e+00
  1.902309e+01    1.394097e+00
  1.913422e+01    1.391891e+00
  1.924535e+01    1.362856e+00
  1.935648e+01    1.359211e+00
  1.946761e+01    1.349423e+00
  1.957874e+01    1.340623e+00
  1.968987e+01    1.302343e+00
  1.980100e+01    1.321812e+00
  1.991213e+01    1.320710e+00
  2.002325e+01    1.267643e+00
  2.013438e+01    1.277694e+00
  2.024551e+01    1.253461e+00
  2.035664e+01    1.249957e+00
  2.046777e+01    1.256796e+00
  2.057890e+01    1.251038e+00
  2.069003e+01    1.237335e+00
  2.080116e+01    1.235769e+00
  2.091229e+01    1.231772e+00
  2.102342e+01    1.210565e+00
  2.113455e+01    1.238691e+00
  2.124567e+01    1.236414e+00
  2.135680e+01    1.297656e+00
  2.146793e+01    1.412861e+00
  2.157906e+01    1.596697e+00
  2.169019e+01    2.544456e+00
  2.180132e+01    5.867975e+00
  2.191245e+01    8.818249e+00
  2.202358e+01    3.653974e+00
  2.213471e+01    1.895440e+00
  2.224584e+01    1.407217e+00
  2.235696e+01    1.233733e+00
  2.246809e+01    1.183783e+00
  2.257922e+01    1.124539e+00
  2.269035e+01    1.092109e+00
  2.280148e+01    1.073252e+00
  2.291261e+01    1.031106e+00
  2.302374e+01    1.016555e+00
  2.313487e+01    9.963129e-01
  2.324600e+01    9.899930e-01
  2.335713e+01    9.664621e-01
  2.346825e+01    9.819012e-01
  2.357938e+01    9.538966e-01
  2.369051e+01    9.352292e-01
  2.380164e+01    9.231695e-01
  2.391277e+01    9.154632e-01
  2.402390e+01    8.940316e-01
  2.413503e+01    8.792033e-01
  2.424616e+01    9.067708e-01
  2.435729e+01    8.917742e-01
  2.446842e+01    9.139601e-01
  2.457954e+01    9.043431e-01
  2.469067e+01    8.919412e-01
  2.480180e+01    8.772662e-01
  2.491293e+01    8.890487e-01
  2.502406e+01    9.166695e-01
  2.513519e+01    9.123796e-01
  2.524632e+01    9.430827e-01
  2.535745e+01    9.911443e-01
  2.546858e+01    1.019910e+00
  2.557971e+01    1.172612e+00
  2.569083e+01    1.493816e+00
  2.580196e+01    2.782686e+00
  2.591309e+01    6.406936e+00
  2.602422e+01    5.331200e+00
  2.613535e+01    2.144133e+00
  2.624648e+01    1.353504e+00
  2.635761e+01    1.115305e+00
  2.646874e+01    1.044466e+00
  2.657987e+01    9.957411e-01
  2.669100e+01    9.936229e-01
  2.680212e+01    9.678392e-01
  2.691325e+01    1.034879e+00
  2.702438e+01    1.166659e+00
  2.713551e+01    1.713201e+00
  2.724664e+01    2.058468e+00
  2.735777e+01    1.282746e+00
  2.746890e+01    1.028360e+00
  2.758003e+01    9.297981e-01
  2.769116e+01    9.393635e-01
  2.780229e+01    8.973114e-01
  2.791342e+01    8.969255e-01
  2.802454e+01    8.805459e-01
  2.813567e+01    8.656975e-01
  2.824680e+01    8.312660e-01
  2.835793e+01    8.617150e-01
  2.846906e+01    8.338394e-01
  2.858019e+01    8.386015e-01
  2.869132e+01    8.324169e-01
  2.880245e+01    8.337722e-01
  2.891358e+01    8.209726e-01
  2.902471e+01    8.150218e-01
  2.913583e+01    8.250852e-01
  2.924696e+01    8.052014e-01
  2.935809e+01    8.094292e-01
  2.946922e+01    8.290284e-01
  2.958035e+01    8.303336e-01
  2.969148e+01    8.003994e-01
  2.980261e+01    8.117646e-01
  2.991374e+01    7.990093e-01
  3.002487e+01    8.140507e-01
  3.013600e+01    8.292097e-01
  3.024712e+01    7.932689e-01
  3.035825e+01    7.893234e-01
  3.046938e+01    7.860456e-01
  3.058051e+01    7.885220e-01
  3.069164e+01    7.784891e-01
  3.080277e+01    7.800104e-01
  3.091390e+01    8.089669e-01
  3.102503e+01    8.038030e-01
  3.113616e+01    7.958500e-01
  3.124729e+01    7.919974e-01
  3.135841e+01    8.088937e-01
  3.146954e+01    8.190493e-01
  3.158067e+01    8.890683e-01
  3.169180e+01    1.015728e+00
  3.180293e+01    1.457887e+00
  3.191406e+01    2.085395e+00
  3.202519e+01    1.321424e+00
  3.213632e+01    9.638040e-01
  3.224745e+01    8.275289e-01
  3.235858e+01    8.246793e-01
  3.246970e+01    7.788791e-01
  3.254908e+01    7.635452e-01