File: XRD/Reaction conditions/2024-07-27_003_Ru-CGO-ex_Reaction_dwell_000023_data_000102.dat
# == pyFAI calibration ==
# Distance Sample to Detector: 0.4 m
# PONI: 9.750e-02, 1.135e-01 m
# Rotations: -0.000175 0.000000 -0.000000 rad
#
# == Fit2d calibration ==
# Distance Sample-beamCenter: 400.000 mm
# Center: x=1514.000, y=1300.000 pix
# Tilt: 0.010 deg  TiltPlanRot: 0.010 deg
#
# Detector Detector	 Spline= None	 PixelSize= 7.500e-05, 7.500e-05 m
#    Detector has a mask: False
#    Detector has a dark current: False
#    detector has a flat field: False
#
# Wavelength: 6.888e-11 m
# Mask applied: user provided
# Dark current applied: False
# Flat field applied: False
# Polarization factor: 0.99
# Normalization factor: 1.0
# --> /home/myspot/data/2024_07_Rosario/Ru-CGO-ex/2024-07-27_003_Ru-CGO-ex_Reaction_dwell_000023_data_000102.dat
#       q_nm^-1             I
  2.003187e-02    7.712225e-02
  1.311609e-01    4.970067e-02
  2.422899e-01    0.000000e+00
  3.534189e-01    2.888963e-02
  4.645479e-01    4.983752e-02
  5.756770e-01    3.412475e-02
  6.868060e-01    4.348542e-02
  7.979350e-01    1.454275e-01
  9.090640e-01    6.085568e-01
  1.020193e+00    1.222796e+00
  1.131322e+00    1.629726e+00
  1.242451e+00    2.254993e+00
  1.353580e+00    2.763076e+00
  1.464709e+00    3.034570e+00
  1.575838e+00    3.197586e+00
  1.686967e+00    3.133136e+00
  1.798096e+00    3.165887e+00
  1.909225e+00    3.127792e+00
  2.020354e+00    3.122550e+00
  2.131483e+00    3.085049e+00
  2.242612e+00    3.035843e+00
  2.353741e+00    3.084420e+00
  2.464870e+00    3.164503e+00
  2.575999e+00    3.253367e+00
  2.687128e+00    3.160553e+00
  2.798257e+00    3.255248e+00
  2.909386e+00    3.369333e+00
  3.020515e+00    3.242795e+00
  3.131644e+00    3.377679e+00
  3.242773e+00    3.367240e+00
  3.353902e+00    3.415780e+00
  3.465031e+00    3.436284e+00
  3.576160e+00    3.483037e+00
  3.687289e+00    3.504080e+00
  3.798418e+00    3.496890e+00
  3.909547e+00    3.513304e+00
  4.020676e+00    3.491599e+00
  4.131806e+00    3.456916e+00
  4.242935e+00    3.571202e+00
  4.354064e+00    3.618974e+00
  4.465193e+00    3.579058e+00
  4.576322e+00    3.607145e+00
  4.687451e+00    3.716156e+00
  4.798580e+00    3.663154e+00
  4.909709e+00    3.684276e+00
  5.020838e+00    3.648373e+00
  5.131967e+00    3.568911e+00
  5.243096e+00    3.588024e+00
  5.354225e+00    3.589125e+00
  5.465354e+00    3.609813e+00
  5.576483e+00    3.682485e+00
  5.687612e+00    3.587465e+00
  5.798741e+00    3.566687e+00
  5.909870e+00    3.609373e+00
  6.020999e+00    3.486329e+00
  6.132128e+00    3.584648e+00
  6.243257e+00    3.540867e+00
  6.354386e+00    3.559450e+00
  6.465515e+00    3.538835e+00
  6.576644e+00    3.580817e+00
  6.687773e+00    3.614213e+00
  6.798902e+00    3.479070e+00
  6.910031e+00    3.574614e+00
  7.021160e+00    3.523499e+00
  7.132289e+00    3.447030e+00
  7.243418e+00    3.545530e+00
  7.354547e+00    3.478346e+00
  7.465676e+00    3.520095e+00
  7.576805e+00    3.475250e+00
  7.687934e+00    3.456775e+00
  7.799063e+00    3.375409e+00
  7.910192e+00    3.412656e+00
  8.021321e+00    3.338448e+00
  8.132450e+00    3.457467e+00
  8.243579e+00    3.461023e+00
  8.354708e+00    3.434732e+00
  8.465837e+00    3.407163e+00
  8.576966e+00    3.370425e+00
  8.688095e+00    3.304421e+00
  8.799224e+00    3.368407e+00
  8.910353e+00    3.269993e+00
  9.021482e+00    3.231532e+00
  9.132611e+00    3.236878e+00
  9.243740e+00    3.310281e+00
  9.354869e+00    3.215248e+00
  9.465998e+00    3.203359e+00
  9.577127e+00    3.221317e+00
  9.688256e+00    3.196429e+00
  9.799385e+00    3.152451e+00
  9.910514e+00    3.113445e+00
  1.002164e+01    3.123244e+00
  1.013277e+01    3.106267e+00
  1.024390e+01    3.004928e+00
  1.035503e+01    3.064188e+00
  1.046616e+01    3.053018e+00
  1.057729e+01    2.998629e+00
  1.068842e+01    2.990300e+00
  1.079955e+01    2.929525e+00
  1.091068e+01    2.922282e+00
  1.102180e+01    2.886946e+00
  1.113293e+01    2.867867e+00
  1.124406e+01    2.837527e+00
  1.135519e+01    2.858607e+00
  1.146632e+01    2.834330e+00
  1.157745e+01    2.775668e+00
  1.168858e+01    2.773158e+00
  1.179971e+01    2.731912e+00
  1.191084e+01    2.766537e+00
  1.202197e+01    2.642707e+00
  1.213309e+01    2.711490e+00
  1.224422e+01    2.687988e+00
  1.235535e+01    2.718318e+00
  1.246648e+01    2.703415e+00
  1.257761e+01    2.717054e+00
  1.268874e+01    2.796201e+00
  1.279987e+01    2.964951e+00
  1.291100e+01    3.602541e+00
  1.302213e+01    6.746065e+00
  1.313326e+01    1.492735e+01
  1.324438e+01    1.069999e+01
  1.335551e+01    4.420457e+00
  1.346664e+01    3.164851e+00
  1.357777e+01    2.737688e+00
  1.368890e+01    2.608370e+00
  1.380003e+01    2.512461e+00
  1.391116e+01    2.457895e+00
  1.402229e+01    2.349153e+00
  1.413342e+01    2.296515e+00
  1.424455e+01    2.277689e+00
  1.435568e+01    2.250275e+00
  1.446680e+01    2.256700e+00
  1.457793e+01    2.203574e+00
  1.468906e+01    2.161958e+00
  1.480019e+01    2.188935e+00
  1.491132e+01    2.253500e+00
  1.502245e+01    2.520799e+00
  1.513358e+01    3.718158e+00
  1.524471e+01    5.778344e+00
  1.535584e+01    3.813351e+00
  1.546697e+01    2.419318e+00
  1.557809e+01    2.144396e+00
  1.568922e+01    2.051228e+00
  1.580035e+01    1.960495e+00
  1.591148e+01    1.908433e+00
  1.602261e+01    1.851380e+00
  1.613374e+01    1.844288e+00
  1.624487e+01    1.830606e+00
  1.635600e+01    1.782779e+00
  1.646713e+01    1.731167e+00
  1.657826e+01    1.736052e+00
  1.668938e+01    1.728570e+00
  1.680051e+01    1.694537e+00
  1.691164e+01    1.701344e+00
  1.702277e+01    1.687971e+00
  1.713390e+01    1.625639e+00
  1.724503e+01    1.614323e+00
  1.735616e+01    1.588881e+00
  1.746729e+01    1.557788e+00
  1.757842e+01    1.589410e+00
  1.768955e+01    1.552871e+00
  1.780067e+01    1.556484e+00
  1.791180e+01    1.489500e+00
  1.802293e+01    1.534869e+00
  1.813406e+01    1.505714e+00
  1.824519e+01    1.470512e+00
  1.835632e+01    1.454614e+00
  1.846745e+01    1.449635e+00
  1.857858e+01    1.434601e+00
  1.868971e+01    1.413916e+00
  1.880084e+01    1.387748e+00
  1.891196e+01    1.397892e+00
  1.902309e+01    1.417818e+00
  1.913422e+01    1.357064e+00
  1.924535e+01    1.358247e+00
  1.935648e+01    1.339809e+00
  1.946761e+01    1.363474e+00
  1.957874e+01    1.362730e+00
  1.968987e+01    1.310689e+00
  1.980100e+01    1.301605e+00
  1.991213e+01    1.264599e+00
  2.002325e+01    1.268420e+00
  2.013438e+01    1.245923e+00
  2.024551e+01    1.255170e+00
  2.035664e+01    1.237395e+00
  2.046777e+01    1.254117e+00
  2.057890e+01    1.214314e+00
  2.069003e+01    1.237814e+00
  2.080116e+01    1.217929e+00
  2.091229e+01    1.238852e+00
  2.102342e+01    1.226629e+00
  2.113455e+01    1.245563e+00
  2.124567e+01    1.269739e+00
  2.135680e+01    1.281610e+00
  2.146793e+01    1.371874e+00
  2.157906e+01    1.602320e+00
  2.169019e+01    2.514222e+00
  2.180132e+01    5.805535e+00
  2.191245e+01    8.855123e+00
  2.202358e+01    3.632887e+00
  2.213471e+01    1.919657e+00
  2.224584e+01    1.424844e+00
  2.235696e+01    1.245895e+00
  2.246809e+01    1.147221e+00
  2.257922e+01    1.114406e+00
  2.269035e+01    1.084031e+00
  2.280148e+01    1.066431e+00
  2.291261e+01    1.048842e+00
  2.302374e+01    1.021173e+00
  2.313487e+01    1.014255e+00
  2.324600e+01    9.961815e-01
  2.335713e+01    9.723057e-01
  2.346825e+01    9.712687e-01
  2.357938e+01    9.499021e-01
  2.369051e+01    9.414076e-01
  2.380164e+01    9.171153e-01
  2.391277e+01    8.917993e-01
  2.402390e+01    9.066199e-01
  2.413503e+01    8.683056e-01
  2.424616e+01    8.587009e-01
  2.435729e+01    8.806126e-01
  2.446842e+01    8.939219e-01
  2.457954e+01    8.715423e-01
  2.469067e+01    8.837039e-01
  2.480180e+01    8.856993e-01
  2.491293e+01    8.738642e-01
  2.502406e+01    9.137641e-01
  2.513519e+01    8.814180e-01
  2.524632e+01    9.390326e-01
  2.535745e+01    9.602427e-01
  2.546858e+01    1.057655e+00
  2.557971e+01    1.157594e+00
  2.569083e+01    1.510120e+00
  2.580196e+01    2.791387e+00
  2.591309e+01    6.331720e+00
  2.602422e+01    5.272770e+00
  2.613535e+01    2.164223e+00
  2.624648e+01    1.363701e+00
  2.635761e+01    1.120916e+00
  2.646874e+01    1.040206e+00
  2.657987e+01    1.014242e+00
  2.669100e+01    9.706745e-01
  2.680212e+01    9.681647e-01
  2.691325e+01    1.021618e+00
  2.702438e+01    1.124706e+00
  2.713551e+01    1.712920e+00
  2.724664e+01    2.083497e+00
  2.735777e+01    1.319293e+00
  2.746890e+01    1.015023e+00
  2.758003e+01    9.321392e-01
  2.769116e+01    8.920704e-01
  2.780229e+01    8.803238e-01
  2.791342e+01    8.710372e-01
  2.802454e+01    8.401503e-01
  2.813567e+01    8.765434e-01
  2.824680e+01    8.769813e-01
  2.835793e+01    8.347585e-01
  2.846906e+01    8.782405e-01
  2.858019e+01    7.953635e-01
  2.869132e+01    8.411980e-01
  2.880245e+01    8.324162e-01
  2.891358e+01    8.361534e-01
  2.902471e+01    8.050525e-01
  2.913583e+01    8.147508e-01
  2.924696e+01    7.822929e-01
  2.935809e+01    8.030430e-01
  2.946922e+01    8.001891e-01
  2.958035e+01    7.911854e-01
  2.969148e+01    8.114950e-01
  2.980261e+01    7.949865e-01
  2.991374e+01    7.939740e-01
  3.002487e+01    8.136587e-01
  3.013600e+01    8.129842e-01
  3.024712e+01    7.803007e-01
  3.035825e+01    7.698542e-01
  3.046938e+01    7.858972e-01
  3.058051e+01    7.631125e-01
  3.069164e+01    7.935703e-01
  3.080277e+01    7.683601e-01
  3.091390e+01    8.086137e-01
  3.102503e+01    7.794911e-01
  3.113616e+01    7.871224e-01
  3.124729e+01    8.033003e-01
  3.135841e+01    7.988399e-01
  3.146954e+01    8.162670e-01
  3.158067e+01    8.736282e-01
  3.169180e+01    1.005521e+00
  3.180293e+01    1.443537e+00
  3.191406e+01    2.123143e+00
  3.202519e+01    1.317361e+00
  3.213632e+01    9.523883e-01
  3.224745e+01    8.281287e-01
  3.235858e+01    7.861003e-01
  3.246970e+01    7.886470e-01
  3.254908e+01    7.597982e-01