File: XRD/Reaction conditions/2024-07-27_003_Ru-CGO-ex_Reaction_dwell_000023_data_000036.dat
# == pyFAI calibration ==
# Distance Sample to Detector: 0.4 m
# PONI: 9.750e-02, 1.135e-01 m
# Rotations: -0.000175 0.000000 -0.000000 rad
#
# == Fit2d calibration ==
# Distance Sample-beamCenter: 400.000 mm
# Center: x=1514.000, y=1300.000 pix
# Tilt: 0.010 deg  TiltPlanRot: 0.010 deg
#
# Detector Detector	 Spline= None	 PixelSize= 7.500e-05, 7.500e-05 m
#    Detector has a mask: False
#    Detector has a dark current: False
#    detector has a flat field: False
#
# Wavelength: 6.888e-11 m
# Mask applied: user provided
# Dark current applied: False
# Flat field applied: False
# Polarization factor: 0.99
# Normalization factor: 1.0
# --> /home/myspot/data/2024_07_Rosario/Ru-CGO-ex/2024-07-27_003_Ru-CGO-ex_Reaction_dwell_000023_data_000036.dat
#       q_nm^-1             I
  2.003187e-02    0.000000e+00
  1.311609e-01    9.776739e-02
  2.422899e-01    2.201815e-02
  3.534189e-01    3.964544e-02
  4.645479e-01    3.031134e-02
  5.756770e-01    4.155223e-02
  6.868060e-01    4.336724e-02
  7.979350e-01    1.696692e-01
  9.090640e-01    6.625822e-01
  1.020193e+00    1.309533e+00
  1.131322e+00    1.663977e+00
  1.242451e+00    2.313976e+00
  1.353580e+00    2.864079e+00
  1.464709e+00    3.106725e+00
  1.575838e+00    3.247846e+00
  1.686967e+00    3.252878e+00
  1.798096e+00    3.104251e+00
  1.909225e+00    3.091364e+00
  2.020354e+00    3.086814e+00
  2.131483e+00    3.140954e+00
  2.242612e+00    3.076100e+00
  2.353741e+00    3.154402e+00
  2.464870e+00    3.188497e+00
  2.575999e+00    3.142820e+00
  2.687128e+00    3.357732e+00
  2.798257e+00    3.363057e+00
  2.909386e+00    3.238076e+00
  3.020515e+00    3.360890e+00
  3.131644e+00    3.435718e+00
  3.242773e+00    3.426322e+00
  3.353902e+00    3.434642e+00
  3.465031e+00    3.452211e+00
  3.576160e+00    3.402195e+00
  3.687289e+00    3.518244e+00
  3.798418e+00    3.549288e+00
  3.909547e+00    3.603217e+00
  4.020676e+00    3.544932e+00
  4.131806e+00    3.469464e+00
  4.242935e+00    3.545894e+00
  4.354064e+00    3.622236e+00
  4.465193e+00    3.628464e+00
  4.576322e+00    3.523373e+00
  4.687451e+00    3.664590e+00
  4.798580e+00    3.686986e+00
  4.909709e+00    3.635991e+00
  5.020838e+00    3.698270e+00
  5.131967e+00    3.655416e+00
  5.243096e+00    3.698363e+00
  5.354225e+00    3.638474e+00
  5.465354e+00    3.667336e+00
  5.576483e+00    3.669412e+00
  5.687612e+00    3.557752e+00
  5.798741e+00    3.526371e+00
  5.909870e+00    3.584050e+00
  6.020999e+00    3.572038e+00
  6.132128e+00    3.666462e+00
  6.243257e+00    3.586815e+00
  6.354386e+00    3.551962e+00
  6.465515e+00    3.649357e+00
  6.576644e+00    3.505427e+00
  6.687773e+00    3.617458e+00
  6.798902e+00    3.546872e+00
  6.910031e+00    3.586076e+00
  7.021160e+00    3.590805e+00
  7.132289e+00    3.554124e+00
  7.243418e+00    3.505350e+00
  7.354547e+00    3.535608e+00
  7.465676e+00    3.486480e+00
  7.576805e+00    3.551247e+00
  7.687934e+00    3.528108e+00
  7.799063e+00    3.419758e+00
  7.910192e+00    3.512146e+00
  8.021321e+00    3.424057e+00
  8.132450e+00    3.469762e+00
  8.243579e+00    3.488351e+00
  8.354708e+00    3.474013e+00
  8.465837e+00    3.349040e+00
  8.576966e+00    3.400917e+00
  8.688095e+00    3.360471e+00
  8.799224e+00    3.396267e+00
  8.910353e+00    3.375956e+00
  9.021482e+00    3.318982e+00
  9.132611e+00    3.246885e+00
  9.243740e+00    3.303371e+00
  9.354869e+00    3.238902e+00
  9.465998e+00    3.173190e+00
  9.577127e+00    3.301341e+00
  9.688256e+00    3.255217e+00
  9.799385e+00    3.158321e+00
  9.910514e+00    3.150810e+00
  1.002164e+01    3.164271e+00
  1.013277e+01    3.135705e+00
  1.024390e+01    3.054827e+00
  1.035503e+01    3.098171e+00
  1.046616e+01    3.061177e+00
  1.057729e+01    3.027278e+00
  1.068842e+01    2.993085e+00
  1.079955e+01    2.963440e+00
  1.091068e+01    2.964239e+00
  1.102180e+01    2.968781e+00
  1.113293e+01    2.880162e+00
  1.124406e+01    2.877681e+00
  1.135519e+01    2.874470e+00
  1.146632e+01    2.881428e+00
  1.157745e+01    2.799435e+00
  1.168858e+01    2.788745e+00
  1.179971e+01    2.761824e+00
  1.191084e+01    2.684198e+00
  1.202197e+01    2.774393e+00
  1.213309e+01    2.746225e+00
  1.224422e+01    2.678514e+00
  1.235535e+01    2.681567e+00
  1.246648e+01    2.702620e+00
  1.257761e+01    2.769521e+00
  1.268874e+01    2.783817e+00
  1.279987e+01    2.996198e+00
  1.291100e+01    3.704883e+00
  1.302213e+01    6.813798e+00
  1.313326e+01    1.505482e+01
  1.324438e+01    1.080356e+01
  1.335551e+01    4.527072e+00
  1.346664e+01    3.149200e+00
  1.357777e+01    2.741497e+00
  1.368890e+01    2.566948e+00
  1.380003e+01    2.523363e+00
  1.391116e+01    2.435781e+00
  1.402229e+01    2.413973e+00
  1.413342e+01    2.353681e+00
  1.424455e+01    2.314008e+00
  1.435568e+01    2.272586e+00
  1.446680e+01    2.181609e+00
  1.457793e+01    2.240143e+00
  1.468906e+01    2.203005e+00
  1.480019e+01    2.203933e+00
  1.491132e+01    2.234257e+00
  1.502245e+01    2.531819e+00
  1.513358e+01    3.796962e+00
  1.524471e+01    5.784644e+00
  1.535584e+01    3.791993e+00
  1.546697e+01    2.435530e+00
  1.557809e+01    2.133528e+00
  1.568922e+01    2.018431e+00
  1.580035e+01    1.922526e+00
  1.591148e+01    1.901400e+00
  1.602261e+01    1.856357e+00
  1.613374e+01    1.868044e+00
  1.624487e+01    1.812439e+00
  1.635600e+01    1.823560e+00
  1.646713e+01    1.769729e+00
  1.657826e+01    1.747355e+00
  1.668938e+01    1.732341e+00
  1.680051e+01    1.767056e+00
  1.691164e+01    1.698006e+00
  1.702277e+01    1.676124e+00
  1.713390e+01    1.669223e+00
  1.724503e+01    1.647188e+00
  1.735616e+01    1.625177e+00
  1.746729e+01    1.571756e+00
  1.757842e+01    1.562850e+00
  1.768955e+01    1.594813e+00
  1.780067e+01    1.525826e+00
  1.791180e+01    1.523926e+00
  1.802293e+01    1.537179e+00
  1.813406e+01    1.462401e+00
  1.824519e+01    1.481014e+00
  1.835632e+01    1.471482e+00
  1.846745e+01    1.457407e+00
  1.857858e+01    1.458120e+00
  1.868971e+01    1.448560e+00
  1.880084e+01    1.428095e+00
  1.891196e+01    1.387766e+00
  1.902309e+01    1.399989e+00
  1.913422e+01    1.375456e+00
  1.924535e+01    1.390727e+00
  1.935648e+01    1.368193e+00
  1.946761e+01    1.350787e+00
  1.957874e+01    1.345210e+00
  1.968987e+01    1.292781e+00
  1.980100e+01    1.294115e+00
  1.991213e+01    1.274020e+00
  2.002325e+01    1.288087e+00
  2.013438e+01    1.309562e+00
  2.024551e+01    1.278473e+00
  2.035664e+01    1.228152e+00
  2.046777e+01    1.242040e+00
  2.057890e+01    1.257039e+00
  2.069003e+01    1.237605e+00
  2.080116e+01    1.234590e+00
  2.091229e+01    1.249801e+00
  2.102342e+01    1.244943e+00
  2.113455e+01    1.226560e+00
  2.124567e+01    1.273078e+00
  2.135680e+01    1.313334e+00
  2.146793e+01    1.390628e+00
  2.157906e+01    1.644474e+00
  2.169019e+01    2.557085e+00
  2.180132e+01    5.980330e+00
  2.191245e+01    8.851387e+00
  2.202358e+01    3.624972e+00
  2.213471e+01    1.867569e+00
  2.224584e+01    1.402857e+00
  2.235696e+01    1.224095e+00
  2.246809e+01    1.163431e+00
  2.257922e+01    1.132032e+00
  2.269035e+01    1.091646e+00
  2.280148e+01    1.070779e+00
  2.291261e+01    1.051135e+00
  2.302374e+01    1.029990e+00
  2.313487e+01    9.987347e-01
  2.324600e+01    1.005915e+00
  2.335713e+01    9.737579e-01
  2.346825e+01    9.836796e-01
  2.357938e+01    9.784119e-01
  2.369051e+01    9.615894e-01
  2.380164e+01    9.443142e-01
  2.391277e+01    9.170483e-01
  2.402390e+01    9.258362e-01
  2.413503e+01    8.959090e-01
  2.424616e+01    8.863601e-01
  2.435729e+01    8.884784e-01
  2.446842e+01    8.855493e-01
  2.457954e+01    9.009705e-01
  2.469067e+01    8.954810e-01
  2.480180e+01    8.918780e-01
  2.491293e+01    9.134175e-01
  2.502406e+01    8.902308e-01
  2.513519e+01    8.920738e-01
  2.524632e+01    9.364012e-01
  2.535745e+01    9.698920e-01
  2.546858e+01    1.043531e+00
  2.557971e+01    1.180211e+00
  2.569083e+01    1.512329e+00
  2.580196e+01    2.868645e+00
  2.591309e+01    6.487190e+00
  2.602422e+01    5.323183e+00
  2.613535e+01    2.139828e+00
  2.624648e+01    1.343542e+00
  2.635761e+01    1.109986e+00
  2.646874e+01    1.025729e+00
  2.657987e+01    1.000171e+00
  2.669100e+01    9.779339e-01
  2.680212e+01    9.660420e-01
  2.691325e+01    9.963058e-01
  2.702438e+01    1.143944e+00
  2.713551e+01    1.776622e+00
  2.724664e+01    2.099833e+00
  2.735777e+01    1.295473e+00
  2.746890e+01    1.027790e+00
  2.758003e+01    9.254099e-01
  2.769116e+01    9.051505e-01
  2.780229e+01    8.862862e-01
  2.791342e+01    8.900667e-01
  2.802454e+01    8.586556e-01
  2.813567e+01    8.910940e-01
  2.824680e+01    8.598601e-01
  2.835793e+01    8.748269e-01
  2.846906e+01    8.400426e-01
  2.858019e+01    8.385199e-01
  2.869132e+01    8.245201e-01
  2.880245e+01    8.539820e-01
  2.891358e+01    8.489249e-01
  2.902471e+01    8.132983e-01
  2.913583e+01    8.215687e-01
  2.924696e+01    8.192997e-01
  2.935809e+01    8.267272e-01
  2.946922e+01    7.908711e-01
  2.958035e+01    8.196540e-01
  2.969148e+01    8.113118e-01
  2.980261e+01    8.141936e-01
  2.991374e+01    8.178246e-01
  3.002487e+01    8.234318e-01
  3.013600e+01    7.920593e-01
  3.024712e+01    7.825521e-01
  3.035825e+01    7.852342e-01
  3.046938e+01    8.054636e-01
  3.058051e+01    8.247069e-01
  3.069164e+01    7.997736e-01
  3.080277e+01    7.837882e-01
  3.091390e+01    8.064545e-01
  3.102503e+01    7.912043e-01
  3.113616e+01    7.992073e-01
  3.124729e+01    8.048120e-01
  3.135841e+01    8.342498e-01
  3.146954e+01    8.347807e-01
  3.158067e+01    8.655242e-01
  3.169180e+01    9.946627e-01
  3.180293e+01    1.516046e+00
  3.191406e+01    2.077394e+00
  3.202519e+01    1.330400e+00
  3.213632e+01    9.642546e-01
  3.224745e+01    8.464628e-01
  3.235858e+01    8.089923e-01
  3.246970e+01    7.871713e-01
  3.254908e+01    7.819820e-01