File: XRD/Reaction conditions/2024-07-27_003_Ru-CGO-ex_Reaction_dwell_000023_data_000086.dat
# == pyFAI calibration ==
# Distance Sample to Detector: 0.4 m
# PONI: 9.750e-02, 1.135e-01 m
# Rotations: -0.000175 0.000000 -0.000000 rad
#
# == Fit2d calibration ==
# Distance Sample-beamCenter: 400.000 mm
# Center: x=1514.000, y=1300.000 pix
# Tilt: 0.010 deg  TiltPlanRot: 0.010 deg
#
# Detector Detector	 Spline= None	 PixelSize= 7.500e-05, 7.500e-05 m
#    Detector has a mask: False
#    Detector has a dark current: False
#    detector has a flat field: False
#
# Wavelength: 6.888e-11 m
# Mask applied: user provided
# Dark current applied: False
# Flat field applied: False
# Polarization factor: 0.99
# Normalization factor: 1.0
# --> /home/myspot/data/2024_07_Rosario/Ru-CGO-ex/2024-07-27_003_Ru-CGO-ex_Reaction_dwell_000023_data_000086.dat
#       q_nm^-1             I
  2.003187e-02    7.711996e-02
  1.311609e-01    2.854345e-02
  2.422899e-01    3.792336e-02
  3.534189e-01    7.228426e-02
  4.645479e-01    5.399166e-02
  5.756770e-01    5.825760e-02
  6.868060e-01    4.302128e-02
  7.979350e-01    1.588534e-01
  9.090640e-01    6.726213e-01
  1.020193e+00    1.351426e+00
  1.131322e+00    1.644856e+00
  1.242451e+00    2.290720e+00
  1.353580e+00    2.910671e+00
  1.464709e+00    3.007646e+00
  1.575838e+00    3.267192e+00
  1.686967e+00    3.235710e+00
  1.798096e+00    3.094259e+00
  1.909225e+00    3.097604e+00
  2.020354e+00    3.112670e+00
  2.131483e+00    3.036078e+00
  2.242612e+00    3.176565e+00
  2.353741e+00    3.182820e+00
  2.464870e+00    3.230355e+00
  2.575999e+00    3.287047e+00
  2.687128e+00    3.212349e+00
  2.798257e+00    3.389381e+00
  2.909386e+00    3.326030e+00
  3.020515e+00    3.360882e+00
  3.131644e+00    3.418219e+00
  3.242773e+00    3.326915e+00
  3.353902e+00    3.374953e+00
  3.465031e+00    3.501453e+00
  3.576160e+00    3.497131e+00
  3.687289e+00    3.424659e+00
  3.798418e+00    3.471129e+00
  3.909547e+00    3.572234e+00
  4.020676e+00    3.569509e+00
  4.131806e+00    3.584145e+00
  4.242935e+00    3.657515e+00
  4.354064e+00    3.609849e+00
  4.465193e+00    3.549381e+00
  4.576322e+00    3.635609e+00
  4.687451e+00    3.521429e+00
  4.798580e+00    3.695560e+00
  4.909709e+00    3.580185e+00
  5.020838e+00    3.709249e+00
  5.131967e+00    3.707709e+00
  5.243096e+00    3.730222e+00
  5.354225e+00    3.649843e+00
  5.465354e+00    3.638157e+00
  5.576483e+00    3.664658e+00
  5.687612e+00    3.554136e+00
  5.798741e+00    3.552180e+00
  5.909870e+00    3.605162e+00
  6.020999e+00    3.458654e+00
  6.132128e+00    3.693214e+00
  6.243257e+00    3.618785e+00
  6.354386e+00    3.540505e+00
  6.465515e+00    3.528321e+00
  6.576644e+00    3.577703e+00
  6.687773e+00    3.607226e+00
  6.798902e+00    3.590616e+00
  6.910031e+00    3.616317e+00
  7.021160e+00    3.476241e+00
  7.132289e+00    3.512563e+00
  7.243418e+00    3.515258e+00
  7.354547e+00    3.487017e+00
  7.465676e+00    3.450713e+00
  7.576805e+00    3.419027e+00
  7.687934e+00    3.516965e+00
  7.799063e+00    3.448656e+00
  7.910192e+00    3.464487e+00
  8.021321e+00    3.420521e+00
  8.132450e+00    3.424586e+00
  8.243579e+00    3.395068e+00
  8.354708e+00    3.452502e+00
  8.465837e+00    3.363167e+00
  8.576966e+00    3.357104e+00
  8.688095e+00    3.357075e+00
  8.799224e+00    3.321483e+00
  8.910353e+00    3.323904e+00
  9.021482e+00    3.283134e+00
  9.132611e+00    3.272962e+00
  9.243740e+00    3.297074e+00
  9.354869e+00    3.206502e+00
  9.465998e+00    3.229951e+00
  9.577127e+00    3.274317e+00
  9.688256e+00    3.137570e+00
  9.799385e+00    3.186738e+00
  9.910514e+00    3.160548e+00
  1.002164e+01    3.090757e+00
  1.013277e+01    3.087222e+00
  1.024390e+01    3.099772e+00
  1.035503e+01    3.087659e+00
  1.046616e+01    3.095293e+00
  1.057729e+01    2.986556e+00
  1.068842e+01    2.987781e+00
  1.079955e+01    2.965154e+00
  1.091068e+01    2.921544e+00
  1.102180e+01    2.879687e+00
  1.113293e+01    2.934825e+00
  1.124406e+01    2.787826e+00
  1.135519e+01    2.849265e+00
  1.146632e+01    2.798333e+00
  1.157745e+01    2.776732e+00
  1.168858e+01    2.745006e+00
  1.179971e+01    2.703530e+00
  1.191084e+01    2.724669e+00
  1.202197e+01    2.717617e+00
  1.213309e+01    2.716594e+00
  1.224422e+01    2.650791e+00
  1.235535e+01    2.664589e+00
  1.246648e+01    2.696971e+00
  1.257761e+01    2.768899e+00
  1.268874e+01    2.812708e+00
  1.279987e+01    3.006555e+00
  1.291100e+01    3.692950e+00
  1.302213e+01    6.801888e+00
  1.313326e+01    1.486005e+01
  1.324438e+01    1.073518e+01
  1.335551e+01    4.414602e+00
  1.346664e+01    3.173738e+00
  1.357777e+01    2.722805e+00
  1.368890e+01    2.595421e+00
  1.380003e+01    2.521363e+00
  1.391116e+01    2.426640e+00
  1.402229e+01    2.358940e+00
  1.413342e+01    2.311415e+00
  1.424455e+01    2.256991e+00
  1.435568e+01    2.309619e+00
  1.446680e+01    2.236942e+00
  1.457793e+01    2.221302e+00
  1.468906e+01    2.163848e+00
  1.480019e+01    2.219347e+00
  1.491132e+01    2.281101e+00
  1.502245e+01    2.534493e+00
  1.513358e+01    3.857157e+00
  1.524471e+01    5.790111e+00
  1.535584e+01    3.833562e+00
  1.546697e+01    2.416976e+00
  1.557809e+01    2.154995e+00
  1.568922e+01    1.965697e+00
  1.580035e+01    1.939422e+00
  1.591148e+01    1.913718e+00
  1.602261e+01    1.896691e+00
  1.613374e+01    1.871523e+00
  1.624487e+01    1.831266e+00
  1.635600e+01    1.784897e+00
  1.646713e+01    1.774970e+00
  1.657826e+01    1.732658e+00
  1.668938e+01    1.722346e+00
  1.680051e+01    1.703353e+00
  1.691164e+01    1.698689e+00
  1.702277e+01    1.656646e+00
  1.713390e+01    1.630135e+00
  1.724503e+01    1.624193e+00
  1.735616e+01    1.615186e+00
  1.746729e+01    1.568123e+00
  1.757842e+01    1.569745e+00
  1.768955e+01    1.538111e+00
  1.780067e+01    1.555549e+00
  1.791180e+01    1.548543e+00
  1.802293e+01    1.500426e+00
  1.813406e+01    1.476347e+00
  1.824519e+01    1.455471e+00
  1.835632e+01    1.478511e+00
  1.846745e+01    1.476309e+00
  1.857858e+01    1.404580e+00
  1.868971e+01    1.419422e+00
  1.880084e+01    1.416812e+00
  1.891196e+01    1.433710e+00
  1.902309e+01    1.365972e+00
  1.913422e+01    1.365104e+00
  1.924535e+01    1.351897e+00
  1.935648e+01    1.340492e+00
  1.946761e+01    1.330741e+00
  1.957874e+01    1.332844e+00
  1.968987e+01    1.312806e+00
  1.980100e+01    1.315934e+00
  1.991213e+01    1.279540e+00
  2.002325e+01    1.297378e+00
  2.013438e+01    1.281741e+00
  2.024551e+01    1.262939e+00
  2.035664e+01    1.247948e+00
  2.046777e+01    1.253649e+00
  2.057890e+01    1.228129e+00
  2.069003e+01    1.213736e+00
  2.080116e+01    1.221087e+00
  2.091229e+01    1.203913e+00
  2.102342e+01    1.209576e+00
  2.113455e+01    1.229523e+00
  2.124567e+01    1.259365e+00
  2.135680e+01    1.303684e+00
  2.146793e+01    1.401557e+00
  2.157906e+01    1.618494e+00
  2.169019e+01    2.519879e+00
  2.180132e+01    5.905524e+00
  2.191245e+01    8.816202e+00
  2.202358e+01    3.669326e+00
  2.213471e+01    1.894419e+00
  2.224584e+01    1.427069e+00
  2.235696e+01    1.238173e+00
  2.246809e+01    1.149209e+00
  2.257922e+01    1.114541e+00
  2.269035e+01    1.081218e+00
  2.280148e+01    1.066926e+00
  2.291261e+01    1.049838e+00
  2.302374e+01    1.022434e+00
  2.313487e+01    1.002406e+00
  2.324600e+01    1.008834e+00
  2.335713e+01    9.863625e-01
  2.346825e+01    9.703569e-01
  2.357938e+01    9.704274e-01
  2.369051e+01    9.376237e-01
  2.380164e+01    9.404749e-01
  2.391277e+01    9.064327e-01
  2.402390e+01    9.132928e-01
  2.413503e+01    9.052126e-01
  2.424616e+01    8.963346e-01
  2.435729e+01    8.723270e-01
  2.446842e+01    8.952953e-01
  2.457954e+01    9.116361e-01
  2.469067e+01    8.844855e-01
  2.480180e+01    9.105304e-01
  2.491293e+01    9.017662e-01
  2.502406e+01    9.014024e-01
  2.513519e+01    8.807196e-01
  2.524632e+01    9.392008e-01
  2.535745e+01    9.850471e-01
  2.546858e+01    1.026031e+00
  2.557971e+01    1.179348e+00
  2.569083e+01    1.530943e+00
  2.580196e+01    2.813188e+00
  2.591309e+01    6.452229e+00
  2.602422e+01    5.336374e+00
  2.613535e+01    2.191209e+00
  2.624648e+01    1.387074e+00
  2.635761e+01    1.118441e+00
  2.646874e+01    1.016038e+00
  2.657987e+01    9.919653e-01
  2.669100e+01    9.800995e-01
  2.680212e+01    9.802577e-01
  2.691325e+01    1.021507e+00
  2.702438e+01    1.173063e+00
  2.713551e+01    1.760489e+00
  2.724664e+01    2.107747e+00
  2.735777e+01    1.274950e+00
  2.746890e+01    1.025019e+00
  2.758003e+01    9.457776e-01
  2.769116e+01    9.169794e-01
  2.780229e+01    9.072983e-01
  2.791342e+01    8.762004e-01
  2.802454e+01    8.836417e-01
  2.813567e+01    8.539883e-01
  2.824680e+01    8.591293e-01
  2.835793e+01    8.600459e-01
  2.846906e+01    8.402277e-01
  2.858019e+01    8.260881e-01
  2.869132e+01    8.309508e-01
  2.880245e+01    8.435495e-01
  2.891358e+01    8.268392e-01
  2.902471e+01    8.098657e-01
  2.913583e+01    8.223587e-01
  2.924696e+01    8.063565e-01
  2.935809e+01    8.009934e-01
  2.946922e+01    7.989857e-01
  2.958035e+01    7.874415e-01
  2.969148e+01    8.048274e-01
  2.980261e+01    7.803034e-01
  2.991374e+01    7.961209e-01
  3.002487e+01    7.804994e-01
  3.013600e+01    8.024270e-01
  3.024712e+01    7.856299e-01
  3.035825e+01    7.809550e-01
  3.046938e+01    7.855573e-01
  3.058051e+01    8.006943e-01
  3.069164e+01    7.770466e-01
  3.080277e+01    7.994542e-01
  3.091390e+01    7.896309e-01
  3.102503e+01    7.892992e-01
  3.113616e+01    7.910380e-01
  3.124729e+01    7.938668e-01
  3.135841e+01    7.917655e-01
  3.146954e+01    8.131450e-01
  3.158067e+01    8.822625e-01
  3.169180e+01    9.963056e-01
  3.180293e+01    1.473133e+00
  3.191406e+01    2.122946e+00
  3.202519e+01    1.334275e+00
  3.213632e+01    9.656104e-01
  3.224745e+01    8.336616e-01
  3.235858e+01    8.009116e-01
  3.246970e+01    7.897324e-01
  3.254908e+01    7.773405e-01