File: XRD/Reaction conditions/2024-07-27_003_Ru-CGO-ex_Reaction_dwell_000023_data_000019.dat
# == pyFAI calibration ==
# Distance Sample to Detector: 0.4 m
# PONI: 9.750e-02, 1.135e-01 m
# Rotations: -0.000175 0.000000 -0.000000 rad
#
# == Fit2d calibration ==
# Distance Sample-beamCenter: 400.000 mm
# Center: x=1514.000, y=1300.000 pix
# Tilt: 0.010 deg  TiltPlanRot: 0.010 deg
#
# Detector Detector	 Spline= None	 PixelSize= 7.500e-05, 7.500e-05 m
#    Detector has a mask: False
#    Detector has a dark current: False
#    detector has a flat field: False
#
# Wavelength: 6.888e-11 m
# Mask applied: user provided
# Dark current applied: False
# Flat field applied: False
# Polarization factor: 0.99
# Normalization factor: 1.0
# --> /home/myspot/data/2024_07_Rosario/Ru-CGO-ex/2024-07-27_003_Ru-CGO-ex_Reaction_dwell_000023_data_000019.dat
#       q_nm^-1             I
  2.003187e-02    1.424646e-01
  1.311609e-01    2.716045e-02
  2.422899e-01    2.354378e-02
  3.534189e-01    4.134431e-02
  4.645479e-01    1.752217e-02
  5.756770e-01    1.936494e-02
  6.868060e-01    2.627142e-02
  7.979350e-01    2.152743e-01
  9.090640e-01    6.183788e-01
  1.020193e+00    1.361323e+00
  1.131322e+00    1.622291e+00
  1.242451e+00    2.419494e+00
  1.353580e+00    2.702287e+00
  1.464709e+00    2.982723e+00
  1.575838e+00    3.253237e+00
  1.686967e+00    3.103851e+00
  1.798096e+00    3.183914e+00
  1.909225e+00    3.103799e+00
  2.020354e+00    3.013564e+00
  2.131483e+00    3.109673e+00
  2.242612e+00    3.015086e+00
  2.353741e+00    3.069997e+00
  2.464870e+00    3.110693e+00
  2.575999e+00    3.179287e+00
  2.687128e+00    3.236979e+00
  2.798257e+00    3.210258e+00
  2.909386e+00    3.296562e+00
  3.020515e+00    3.275715e+00
  3.131644e+00    3.520502e+00
  3.242773e+00    3.318099e+00
  3.353902e+00    3.522420e+00
  3.465031e+00    3.317527e+00
  3.576160e+00    3.503662e+00
  3.687289e+00    3.459013e+00
  3.798418e+00    3.493269e+00
  3.909547e+00    3.640897e+00
  4.020676e+00    3.434946e+00
  4.131806e+00    3.527468e+00
  4.242935e+00    3.644418e+00
  4.354064e+00    3.697929e+00
  4.465193e+00    3.636353e+00
  4.576322e+00    3.645030e+00
  4.687451e+00    3.680517e+00
  4.798580e+00    3.681961e+00
  4.909709e+00    3.700173e+00
  5.020838e+00    3.614919e+00
  5.131967e+00    3.651205e+00
  5.243096e+00    3.721295e+00
  5.354225e+00    3.663873e+00
  5.465354e+00    3.565219e+00
  5.576483e+00    3.702729e+00
  5.687612e+00    3.658884e+00
  5.798741e+00    3.636457e+00
  5.909870e+00    3.484139e+00
  6.020999e+00    3.492836e+00
  6.132128e+00    3.671431e+00
  6.243257e+00    3.638306e+00
  6.354386e+00    3.612011e+00
  6.465515e+00    3.499188e+00
  6.576644e+00    3.605157e+00
  6.687773e+00    3.521356e+00
  6.798902e+00    3.492965e+00
  6.910031e+00    3.545859e+00
  7.021160e+00    3.573087e+00
  7.132289e+00    3.504469e+00
  7.243418e+00    3.535807e+00
  7.354547e+00    3.498484e+00
  7.465676e+00    3.536415e+00
  7.576805e+00    3.411929e+00
  7.687934e+00    3.437911e+00
  7.799063e+00    3.486131e+00
  7.910192e+00    3.440671e+00
  8.021321e+00    3.388287e+00
  8.132450e+00    3.487245e+00
  8.243579e+00    3.507079e+00
  8.354708e+00    3.418826e+00
  8.465837e+00    3.353746e+00
  8.576966e+00    3.358155e+00
  8.688095e+00    3.418793e+00
  8.799224e+00    3.324035e+00
  8.910353e+00    3.318014e+00
  9.021482e+00    3.227391e+00
  9.132611e+00    3.254920e+00
  9.243740e+00    3.300731e+00
  9.354869e+00    3.185821e+00
  9.465998e+00    3.278010e+00
  9.577127e+00    3.180802e+00
  9.688256e+00    3.230286e+00
  9.799385e+00    3.174137e+00
  9.910514e+00    3.134359e+00
  1.002164e+01    3.090177e+00
  1.013277e+01    3.069106e+00
  1.024390e+01    3.088303e+00
  1.035503e+01    2.994380e+00
  1.046616e+01    3.070870e+00
  1.057729e+01    3.032506e+00
  1.068842e+01    2.998998e+00
  1.079955e+01    2.945419e+00
  1.091068e+01    3.001385e+00
  1.102180e+01    2.926336e+00
  1.113293e+01    2.876242e+00
  1.124406e+01    2.907028e+00
  1.135519e+01    2.833651e+00
  1.146632e+01    2.837047e+00
  1.157745e+01    2.803205e+00
  1.168858e+01    2.727673e+00
  1.179971e+01    2.737830e+00
  1.191084e+01    2.704748e+00
  1.202197e+01    2.725582e+00
  1.213309e+01    2.687318e+00
  1.224422e+01    2.710692e+00
  1.235535e+01    2.682975e+00
  1.246648e+01    2.730169e+00
  1.257761e+01    2.775935e+00
  1.268874e+01    2.812816e+00
  1.279987e+01    3.004509e+00
  1.291100e+01    3.643185e+00
  1.302213e+01    6.838177e+00
  1.313326e+01    1.499529e+01
  1.324438e+01    1.066133e+01
  1.335551e+01    4.428394e+00
  1.346664e+01    3.133276e+00
  1.357777e+01    2.728386e+00
  1.368890e+01    2.599006e+00
  1.380003e+01    2.477848e+00
  1.391116e+01    2.429974e+00
  1.402229e+01    2.353799e+00
  1.413342e+01    2.314775e+00
  1.424455e+01    2.324574e+00
  1.435568e+01    2.289692e+00
  1.446680e+01    2.220519e+00
  1.457793e+01    2.217680e+00
  1.468906e+01    2.212547e+00
  1.480019e+01    2.168466e+00
  1.491132e+01    2.275596e+00
  1.502245e+01    2.460567e+00
  1.513358e+01    3.848554e+00
  1.524471e+01    5.827005e+00
  1.535584e+01    3.789597e+00
  1.546697e+01    2.444537e+00
  1.557809e+01    2.107661e+00
  1.568922e+01    1.963059e+00
  1.580035e+01    1.944617e+00
  1.591148e+01    1.913847e+00
  1.602261e+01    1.864898e+00
  1.613374e+01    1.849400e+00
  1.624487e+01    1.825389e+00
  1.635600e+01    1.780957e+00
  1.646713e+01    1.779422e+00
  1.657826e+01    1.746859e+00
  1.668938e+01    1.773029e+00
  1.680051e+01    1.704369e+00
  1.691164e+01    1.657142e+00
  1.702277e+01    1.673773e+00
  1.713390e+01    1.652334e+00
  1.724503e+01    1.616117e+00
  1.735616e+01    1.584216e+00
  1.746729e+01    1.591033e+00
  1.757842e+01    1.543195e+00
  1.768955e+01    1.608441e+00
  1.780067e+01    1.569915e+00
  1.791180e+01    1.531846e+00
  1.802293e+01    1.537422e+00
  1.813406e+01    1.487590e+00
  1.824519e+01    1.491331e+00
  1.835632e+01    1.464230e+00
  1.846745e+01    1.444026e+00
  1.857858e+01    1.450720e+00
  1.868971e+01    1.421318e+00
  1.880084e+01    1.439683e+00
  1.891196e+01    1.393851e+00
  1.902309e+01    1.379507e+00
  1.913422e+01    1.376964e+00
  1.924535e+01    1.375682e+00
  1.935648e+01    1.362447e+00
  1.946761e+01    1.360467e+00
  1.957874e+01    1.331286e+00
  1.968987e+01    1.311902e+00
  1.980100e+01    1.303363e+00
  1.991213e+01    1.266005e+00
  2.002325e+01    1.308298e+00
  2.013438e+01    1.249305e+00
  2.024551e+01    1.253416e+00
  2.035664e+01    1.242306e+00
  2.046777e+01    1.248986e+00
  2.057890e+01    1.255419e+00
  2.069003e+01    1.226041e+00
  2.080116e+01    1.250158e+00
  2.091229e+01    1.234771e+00
  2.102342e+01    1.204776e+00
  2.113455e+01    1.206123e+00
  2.124567e+01    1.242960e+00
  2.135680e+01    1.273310e+00
  2.146793e+01    1.361555e+00
  2.157906e+01    1.613482e+00
  2.169019e+01    2.540792e+00
  2.180132e+01    5.949192e+00
  2.191245e+01    8.784817e+00
  2.202358e+01    3.626078e+00
  2.213471e+01    1.837350e+00
  2.224584e+01    1.438629e+00
  2.235696e+01    1.233867e+00
  2.246809e+01    1.141560e+00
  2.257922e+01    1.122155e+00
  2.269035e+01    1.104763e+00
  2.280148e+01    1.075605e+00
  2.291261e+01    1.045984e+00
  2.302374e+01    1.022629e+00
  2.313487e+01    1.019458e+00
  2.324600e+01    9.900580e-01
  2.335713e+01    9.842241e-01
  2.346825e+01    9.827474e-01
  2.357938e+01    9.702817e-01
  2.369051e+01    9.357287e-01
  2.380164e+01    9.458675e-01
  2.391277e+01    8.977076e-01
  2.402390e+01    9.058849e-01
  2.413503e+01    8.912606e-01
  2.424616e+01    8.807910e-01
  2.435729e+01    9.020503e-01
  2.446842e+01    8.841448e-01
  2.457954e+01    8.977233e-01
  2.469067e+01    8.943650e-01
  2.480180e+01    9.013954e-01
  2.491293e+01    8.710834e-01
  2.502406e+01    9.194389e-01
  2.513519e+01    9.163157e-01
  2.524632e+01    9.371073e-01
  2.535745e+01    9.700407e-01
  2.546858e+01    1.034677e+00
  2.557971e+01    1.176834e+00
  2.569083e+01    1.523292e+00
  2.580196e+01    2.858546e+00
  2.591309e+01    6.477408e+00
  2.602422e+01    5.290267e+00
  2.613535e+01    2.113704e+00
  2.624648e+01    1.339983e+00
  2.635761e+01    1.113818e+00
  2.646874e+01    1.047583e+00
  2.657987e+01    9.904718e-01
  2.669100e+01    9.894813e-01
  2.680212e+01    9.974835e-01
  2.691325e+01    1.002244e+00
  2.702438e+01    1.155499e+00
  2.713551e+01    1.735090e+00
  2.724664e+01    2.097292e+00
  2.735777e+01    1.309541e+00
  2.746890e+01    1.029984e+00
  2.758003e+01    9.362109e-01
  2.769116e+01    9.202359e-01
  2.780229e+01    8.989782e-01
  2.791342e+01    8.910090e-01
  2.802454e+01    8.769262e-01
  2.813567e+01    8.495616e-01
  2.824680e+01    8.673813e-01
  2.835793e+01    8.437868e-01
  2.846906e+01    8.549216e-01
  2.858019e+01    8.301510e-01
  2.869132e+01    8.307570e-01
  2.880245e+01    8.435578e-01
  2.891358e+01    8.228899e-01
  2.902471e+01    8.101793e-01
  2.913583e+01    8.295267e-01
  2.924696e+01    8.167065e-01
  2.935809e+01    8.221088e-01
  2.946922e+01    8.072457e-01
  2.958035e+01    8.048185e-01
  2.969148e+01    8.097668e-01
  2.980261e+01    7.986369e-01
  2.991374e+01    8.077304e-01
  3.002487e+01    8.190787e-01
  3.013600e+01    7.877908e-01
  3.024712e+01    7.757829e-01
  3.035825e+01    7.912030e-01
  3.046938e+01    7.716130e-01
  3.058051e+01    7.766092e-01
  3.069164e+01    7.950266e-01
  3.080277e+01    7.736883e-01
  3.091390e+01    7.905592e-01
  3.102503e+01    7.791030e-01
  3.113616e+01    8.112161e-01
  3.124729e+01    7.986106e-01
  3.135841e+01    7.876315e-01
  3.146954e+01    8.251399e-01
  3.158067e+01    8.478329e-01
  3.169180e+01    9.888648e-01
  3.180293e+01    1.489975e+00
  3.191406e+01    2.125180e+00
  3.202519e+01    1.320001e+00
  3.213632e+01    9.400874e-01
  3.224745e+01    8.341083e-01
  3.235858e+01    8.025970e-01
  3.246970e+01    7.704456e-01
  3.254908e+01    7.693431e-01