File: XRD/Reaction conditions/2024-07-27_003_Ru-CGO-ex_Reaction_dwell_000023_data_000001.dat
# == pyFAI calibration ==
# Distance Sample to Detector: 0.4 m
# PONI: 9.750e-02, 1.135e-01 m
# Rotations: -0.000175 0.000000 -0.000000 rad
#
# == Fit2d calibration ==
# Distance Sample-beamCenter: 400.000 mm
# Center: x=1514.000, y=1300.000 pix
# Tilt: 0.010 deg  TiltPlanRot: 0.010 deg
#
# Detector Detector	 Spline= None	 PixelSize= 7.500e-05, 7.500e-05 m
#    Detector has a mask: False
#    Detector has a dark current: False
#    detector has a flat field: False
#
# Wavelength: 6.888e-11 m
# Mask applied: user provided
# Dark current applied: False
# Flat field applied: False
# Polarization factor: 0.99
# Normalization factor: 1.0
# --> /home/myspot/data/2024_07_Rosario/Ru-CGO-ex/2024-07-27_003_Ru-CGO-ex_Reaction_dwell_000023_data_000001.dat
#       q_nm^-1             I
  2.003187e-02    0.000000e+00
  1.311609e-01    7.111269e-02
  2.422899e-01    4.455807e-02
  3.534189e-01    1.150054e-01
  4.645479e-01    3.201867e-02
  5.756770e-01    4.323086e-02
  6.868060e-01    7.758160e-02
  7.979350e-01    1.450345e-01
  9.090640e-01    5.820984e-01
  1.020193e+00    1.280302e+00
  1.131322e+00    1.646307e+00
  1.242451e+00    2.434180e+00
  1.353580e+00    2.715278e+00
  1.464709e+00    3.109368e+00
  1.575838e+00    3.285595e+00
  1.686967e+00    3.109365e+00
  1.798096e+00    3.089666e+00
  1.909225e+00    3.091596e+00
  2.020354e+00    3.125035e+00
  2.131483e+00    3.273177e+00
  2.242612e+00    3.166754e+00
  2.353741e+00    3.140927e+00
  2.464870e+00    3.324341e+00
  2.575999e+00    3.284543e+00
  2.687128e+00    3.354224e+00
  2.798257e+00    3.286469e+00
  2.909386e+00    3.282668e+00
  3.020515e+00    3.477107e+00
  3.131644e+00    3.215722e+00
  3.242773e+00    3.453914e+00
  3.353902e+00    3.396605e+00
  3.465031e+00    3.522763e+00
  3.576160e+00    3.607446e+00
  3.687289e+00    3.635191e+00
  3.798418e+00    3.552375e+00
  3.909547e+00    3.431767e+00
  4.020676e+00    3.610492e+00
  4.131806e+00    3.557005e+00
  4.242935e+00    3.573972e+00
  4.354064e+00    3.603001e+00
  4.465193e+00    3.630741e+00
  4.576322e+00    3.657369e+00
  4.687451e+00    3.598319e+00
  4.798580e+00    3.569643e+00
  4.909709e+00    3.697089e+00
  5.020838e+00    3.629359e+00
  5.131967e+00    3.603288e+00
  5.243096e+00    3.689333e+00
  5.354225e+00    3.630965e+00
  5.465354e+00    3.637037e+00
  5.576483e+00    3.616686e+00
  5.687612e+00    3.654485e+00
  5.798741e+00    3.572712e+00
  5.909870e+00    3.610248e+00
  6.020999e+00    3.610966e+00
  6.132128e+00    3.581899e+00
  6.243257e+00    3.551563e+00
  6.354386e+00    3.553851e+00
  6.465515e+00    3.568525e+00
  6.576644e+00    3.601315e+00
  6.687773e+00    3.574839e+00
  6.798902e+00    3.559717e+00
  6.910031e+00    3.569372e+00
  7.021160e+00    3.562876e+00
  7.132289e+00    3.481151e+00
  7.243418e+00    3.565702e+00
  7.354547e+00    3.529731e+00
  7.465676e+00    3.477361e+00
  7.576805e+00    3.513503e+00
  7.687934e+00    3.476413e+00
  7.799063e+00    3.441459e+00
  7.910192e+00    3.452536e+00
  8.021321e+00    3.454478e+00
  8.132450e+00    3.477138e+00
  8.243579e+00    3.491646e+00
  8.354708e+00    3.362986e+00
  8.465837e+00    3.418571e+00
  8.576966e+00    3.429130e+00
  8.688095e+00    3.379581e+00
  8.799224e+00    3.368845e+00
  8.910353e+00    3.263808e+00
  9.021482e+00    3.281521e+00
  9.132611e+00    3.369722e+00
  9.243740e+00    3.217193e+00
  9.354869e+00    3.278719e+00
  9.465998e+00    3.247616e+00
  9.577127e+00    3.273926e+00
  9.688256e+00    3.196414e+00
  9.799385e+00    3.153185e+00
  9.910514e+00    3.133699e+00
  1.002164e+01    3.148350e+00
  1.013277e+01    3.104466e+00
  1.024390e+01    3.058282e+00
  1.035503e+01    3.068898e+00
  1.046616e+01    3.018254e+00
  1.057729e+01    3.040704e+00
  1.068842e+01    2.969385e+00
  1.079955e+01    2.984359e+00
  1.091068e+01    2.951017e+00
  1.102180e+01    2.896861e+00
  1.113293e+01    2.862480e+00
  1.124406e+01    2.890214e+00
  1.135519e+01    2.860673e+00
  1.146632e+01    2.822725e+00
  1.157745e+01    2.836029e+00
  1.168858e+01    2.800647e+00
  1.179971e+01    2.783291e+00
  1.191084e+01    2.717437e+00
  1.202197e+01    2.687931e+00
  1.213309e+01    2.732510e+00
  1.224422e+01    2.731083e+00
  1.235535e+01    2.660928e+00
  1.246648e+01    2.706501e+00
  1.257761e+01    2.753534e+00
  1.268874e+01    2.833084e+00
  1.279987e+01    2.980934e+00
  1.291100e+01    3.679808e+00
  1.302213e+01    6.762552e+00
  1.313326e+01    1.470664e+01
  1.324438e+01    1.070717e+01
  1.335551e+01    4.485745e+00
  1.346664e+01    3.120832e+00
  1.357777e+01    2.757635e+00
  1.368890e+01    2.646873e+00
  1.380003e+01    2.489204e+00
  1.391116e+01    2.407369e+00
  1.402229e+01    2.359855e+00
  1.413342e+01    2.336406e+00
  1.424455e+01    2.280030e+00
  1.435568e+01    2.262639e+00
  1.446680e+01    2.269300e+00
  1.457793e+01    2.224897e+00
  1.468906e+01    2.198226e+00
  1.480019e+01    2.227632e+00
  1.491132e+01    2.257756e+00
  1.502245e+01    2.527750e+00
  1.513358e+01    3.830964e+00
  1.524471e+01    5.694910e+00
  1.535584e+01    3.763756e+00
  1.546697e+01    2.442721e+00
  1.557809e+01    2.143098e+00
  1.568922e+01    2.018351e+00
  1.580035e+01    1.930526e+00
  1.591148e+01    1.917029e+00
  1.602261e+01    1.886326e+00
  1.613374e+01    1.830190e+00
  1.624487e+01    1.820589e+00
  1.635600e+01    1.768423e+00
  1.646713e+01    1.784923e+00
  1.657826e+01    1.759673e+00
  1.668938e+01    1.726171e+00
  1.680051e+01    1.695735e+00
  1.691164e+01    1.698125e+00
  1.702277e+01    1.668296e+00
  1.713390e+01    1.621845e+00
  1.724503e+01    1.673262e+00
  1.735616e+01    1.627703e+00
  1.746729e+01    1.600043e+00
  1.757842e+01    1.577592e+00
  1.768955e+01    1.570166e+00
  1.780067e+01    1.576314e+00
  1.791180e+01    1.538394e+00
  1.802293e+01    1.517156e+00
  1.813406e+01    1.485923e+00
  1.824519e+01    1.481471e+00
  1.835632e+01    1.426224e+00
  1.846745e+01    1.476314e+00
  1.857858e+01    1.418330e+00
  1.868971e+01    1.468381e+00
  1.880084e+01    1.414130e+00
  1.891196e+01    1.405939e+00
  1.902309e+01    1.370177e+00
  1.913422e+01    1.399729e+00
  1.924535e+01    1.340823e+00
  1.935648e+01    1.356773e+00
  1.946761e+01    1.355278e+00
  1.957874e+01    1.341763e+00
  1.968987e+01    1.313764e+00
  1.980100e+01    1.324254e+00
  1.991213e+01    1.306957e+00
  2.002325e+01    1.259251e+00
  2.013438e+01    1.276904e+00
  2.024551e+01    1.293493e+00
  2.035664e+01    1.282630e+00
  2.046777e+01    1.239387e+00
  2.057890e+01    1.243451e+00
  2.069003e+01    1.232598e+00
  2.080116e+01    1.217372e+00
  2.091229e+01    1.263005e+00
  2.102342e+01    1.195315e+00
  2.113455e+01    1.226141e+00
  2.124567e+01    1.257215e+00
  2.135680e+01    1.307469e+00
  2.146793e+01    1.377436e+00
  2.157906e+01    1.615722e+00
  2.169019e+01    2.504411e+00
  2.180132e+01    5.857448e+00
  2.191245e+01    8.769691e+00
  2.202358e+01    3.628268e+00
  2.213471e+01    1.880468e+00
  2.224584e+01    1.415339e+00
  2.235696e+01    1.274874e+00
  2.246809e+01    1.169808e+00
  2.257922e+01    1.122093e+00
  2.269035e+01    1.092387e+00
  2.280148e+01    1.079577e+00
  2.291261e+01    1.043277e+00
  2.302374e+01    1.029648e+00
  2.313487e+01    1.022453e+00
  2.324600e+01    9.953629e-01
  2.335713e+01    9.730600e-01
  2.346825e+01    9.827036e-01
  2.357938e+01    9.860309e-01
  2.369051e+01    9.357368e-01
  2.380164e+01    9.143128e-01
  2.391277e+01    9.165098e-01
  2.402390e+01    8.858686e-01
  2.413503e+01    8.717454e-01
  2.424616e+01    8.827577e-01
  2.435729e+01    8.985099e-01
  2.446842e+01    8.988881e-01
  2.457954e+01    8.791636e-01
  2.469067e+01    9.082237e-01
  2.480180e+01    9.133775e-01
  2.491293e+01    8.834159e-01
  2.502406e+01    9.106091e-01
  2.513519e+01    9.033744e-01
  2.524632e+01    9.473215e-01
  2.535745e+01    9.956740e-01
  2.546858e+01    1.035816e+00
  2.557971e+01    1.166219e+00
  2.569083e+01    1.505923e+00
  2.580196e+01    2.817122e+00
  2.591309e+01    6.347732e+00
  2.602422e+01    5.350675e+00
  2.613535e+01    2.141950e+00
  2.624648e+01    1.359223e+00
  2.635761e+01    1.100559e+00
  2.646874e+01    1.035624e+00
  2.657987e+01    1.011425e+00
  2.669100e+01    9.894087e-01
  2.680212e+01    1.000560e+00
  2.691325e+01    1.011303e+00
  2.702438e+01    1.152041e+00
  2.713551e+01    1.719148e+00
  2.724664e+01    2.070605e+00
  2.735777e+01    1.308101e+00
  2.746890e+01    1.009117e+00
  2.758003e+01    9.432690e-01
  2.769116e+01    9.306303e-01
  2.780229e+01    9.113896e-01
  2.791342e+01    8.754902e-01
  2.802454e+01    8.602917e-01
  2.813567e+01    8.609393e-01
  2.824680e+01    8.748967e-01
  2.835793e+01    8.600770e-01
  2.846906e+01    8.515897e-01
  2.858019e+01    8.511549e-01
  2.869132e+01    8.188210e-01
  2.880245e+01    8.415408e-01
  2.891358e+01    8.405610e-01
  2.902471e+01    8.638602e-01
  2.913583e+01    8.009194e-01
  2.924696e+01    8.125456e-01
  2.935809e+01    8.072441e-01
  2.946922e+01    8.047312e-01
  2.958035e+01    8.134976e-01
  2.969148e+01    7.928149e-01
  2.980261e+01    7.897446e-01
  2.991374e+01    7.971917e-01
  3.002487e+01    8.144544e-01
  3.013600e+01    8.137181e-01
  3.024712e+01    7.759144e-01
  3.035825e+01    8.062406e-01
  3.046938e+01    8.000922e-01
  3.058051e+01    7.858276e-01
  3.069164e+01    7.788613e-01
  3.080277e+01    7.859215e-01
  3.091390e+01    7.758241e-01
  3.102503e+01    7.928006e-01
  3.113616e+01    7.840007e-01
  3.124729e+01    7.965033e-01
  3.135841e+01    7.996894e-01
  3.146954e+01    8.247654e-01
  3.158067e+01    8.746750e-01
  3.169180e+01    9.826305e-01
  3.180293e+01    1.473845e+00
  3.191406e+01    2.092988e+00
  3.202519e+01    1.355893e+00
  3.213632e+01    9.440207e-01
  3.224745e+01    8.621848e-01
  3.235858e+01    8.073153e-01
  3.246970e+01    7.912996e-01
  3.254908e+01    7.664398e-01