File: XRD/Reaction conditions/2024-07-27_003_Ru-CGO-ex_Reaction_dwell_000023_data_000016.dat
# == pyFAI calibration ==
# Distance Sample to Detector: 0.4 m
# PONI: 9.750e-02, 1.135e-01 m
# Rotations: -0.000175 0.000000 -0.000000 rad
#
# == Fit2d calibration ==
# Distance Sample-beamCenter: 400.000 mm
# Center: x=1514.000, y=1300.000 pix
# Tilt: 0.010 deg  TiltPlanRot: 0.010 deg
#
# Detector Detector	 Spline= None	 PixelSize= 7.500e-05, 7.500e-05 m
#    Detector has a mask: False
#    Detector has a dark current: False
#    detector has a flat field: False
#
# Wavelength: 6.888e-11 m
# Mask applied: user provided
# Dark current applied: False
# Flat field applied: False
# Polarization factor: 0.99
# Normalization factor: 1.0
# --> /home/myspot/data/2024_07_Rosario/Ru-CGO-ex/2024-07-27_003_Ru-CGO-ex_Reaction_dwell_000023_data_000016.dat
#       q_nm^-1             I
  2.003187e-02    9.939197e-02
  1.311609e-01    2.051406e-04
  2.422899e-01    5.905874e-02
  3.534189e-01    4.220695e-02
  4.645479e-01    4.219203e-02
  5.756770e-01    4.997562e-02
  6.868060e-01    3.028378e-02
  7.979350e-01    1.528972e-01
  9.090640e-01    6.492147e-01
  1.020193e+00    1.329892e+00
  1.131322e+00    1.623529e+00
  1.242451e+00    2.367474e+00
  1.353580e+00    2.738021e+00
  1.464709e+00    3.037266e+00
  1.575838e+00    3.122056e+00
  1.686967e+00    3.165678e+00
  1.798096e+00    3.002099e+00
  1.909225e+00    3.125634e+00
  2.020354e+00    3.068256e+00
  2.131483e+00    2.922883e+00
  2.242612e+00    3.184175e+00
  2.353741e+00    3.191388e+00
  2.464870e+00    3.142085e+00
  2.575999e+00    3.384285e+00
  2.687128e+00    3.322485e+00
  2.798257e+00    3.320334e+00
  2.909386e+00    3.250912e+00
  3.020515e+00    3.302545e+00
  3.131644e+00    3.349144e+00
  3.242773e+00    3.416476e+00
  3.353902e+00    3.409266e+00
  3.465031e+00    3.516313e+00
  3.576160e+00    3.478682e+00
  3.687289e+00    3.516159e+00
  3.798418e+00    3.423518e+00
  3.909547e+00    3.556724e+00
  4.020676e+00    3.522240e+00
  4.131806e+00    3.602495e+00
  4.242935e+00    3.546292e+00
  4.354064e+00    3.634724e+00
  4.465193e+00    3.686962e+00
  4.576322e+00    3.619660e+00
  4.687451e+00    3.672250e+00
  4.798580e+00    3.673558e+00
  4.909709e+00    3.641596e+00
  5.020838e+00    3.697444e+00
  5.131967e+00    3.617734e+00
  5.243096e+00    3.683326e+00
  5.354225e+00    3.680414e+00
  5.465354e+00    3.566936e+00
  5.576483e+00    3.613129e+00
  5.687612e+00    3.567374e+00
  5.798741e+00    3.584437e+00
  5.909870e+00    3.632177e+00
  6.020999e+00    3.546218e+00
  6.132128e+00    3.554537e+00
  6.243257e+00    3.505323e+00
  6.354386e+00    3.575966e+00
  6.465515e+00    3.528302e+00
  6.576644e+00    3.587480e+00
  6.687773e+00    3.524395e+00
  6.798902e+00    3.560498e+00
  6.910031e+00    3.535954e+00
  7.021160e+00    3.577774e+00
  7.132289e+00    3.512643e+00
  7.243418e+00    3.511237e+00
  7.354547e+00    3.545391e+00
  7.465676e+00    3.585940e+00
  7.576805e+00    3.404265e+00
  7.687934e+00    3.474590e+00
  7.799063e+00    3.391916e+00
  7.910192e+00    3.467655e+00
  8.021321e+00    3.430170e+00
  8.132450e+00    3.492682e+00
  8.243579e+00    3.407799e+00
  8.354708e+00    3.402071e+00
  8.465837e+00    3.351422e+00
  8.576966e+00    3.407063e+00
  8.688095e+00    3.352397e+00
  8.799224e+00    3.319810e+00
  8.910353e+00    3.292143e+00
  9.021482e+00    3.274417e+00
  9.132611e+00    3.214506e+00
  9.243740e+00    3.189048e+00
  9.354869e+00    3.181891e+00
  9.465998e+00    3.199801e+00
  9.577127e+00    3.232568e+00
  9.688256e+00    3.262045e+00
  9.799385e+00    3.149903e+00
  9.910514e+00    3.150989e+00
  1.002164e+01    3.083333e+00
  1.013277e+01    3.068606e+00
  1.024390e+01    3.105689e+00
  1.035503e+01    3.064652e+00
  1.046616e+01    3.001825e+00
  1.057729e+01    2.997157e+00
  1.068842e+01    3.014431e+00
  1.079955e+01    2.949992e+00
  1.091068e+01    2.957343e+00
  1.102180e+01    2.876415e+00
  1.113293e+01    2.898950e+00
  1.124406e+01    2.838207e+00
  1.135519e+01    2.844147e+00
  1.146632e+01    2.794254e+00
  1.157745e+01    2.804819e+00
  1.168858e+01    2.771542e+00
  1.179971e+01    2.765181e+00
  1.191084e+01    2.734517e+00
  1.202197e+01    2.702810e+00
  1.213309e+01    2.700603e+00
  1.224422e+01    2.692874e+00
  1.235535e+01    2.715084e+00
  1.246648e+01    2.727047e+00
  1.257761e+01    2.750891e+00
  1.268874e+01    2.854274e+00
  1.279987e+01    3.000356e+00
  1.291100e+01    3.655263e+00
  1.302213e+01    6.749731e+00
  1.313326e+01    1.483037e+01
  1.324438e+01    1.078496e+01
  1.335551e+01    4.464075e+00
  1.346664e+01    3.126414e+00
  1.357777e+01    2.733669e+00
  1.368890e+01    2.579512e+00
  1.380003e+01    2.492505e+00
  1.391116e+01    2.385506e+00
  1.402229e+01    2.367925e+00
  1.413342e+01    2.284270e+00
  1.424455e+01    2.339142e+00
  1.435568e+01    2.242061e+00
  1.446680e+01    2.239228e+00
  1.457793e+01    2.227111e+00
  1.468906e+01    2.177509e+00
  1.480019e+01    2.189411e+00
  1.491132e+01    2.248817e+00
  1.502245e+01    2.501273e+00
  1.513358e+01    3.840362e+00
  1.524471e+01    5.706386e+00
  1.535584e+01    3.775510e+00
  1.546697e+01    2.451499e+00
  1.557809e+01    2.142370e+00
  1.568922e+01    2.017719e+00
  1.580035e+01    1.956625e+00
  1.591148e+01    1.935684e+00
  1.602261e+01    1.849009e+00
  1.613374e+01    1.846169e+00
  1.624487e+01    1.825609e+00
  1.635600e+01    1.823191e+00
  1.646713e+01    1.786182e+00
  1.657826e+01    1.750078e+00
  1.668938e+01    1.712062e+00
  1.680051e+01    1.681570e+00
  1.691164e+01    1.675794e+00
  1.702277e+01    1.647787e+00
  1.713390e+01    1.632786e+00
  1.724503e+01    1.654093e+00
  1.735616e+01    1.604623e+00
  1.746729e+01    1.585649e+00
  1.757842e+01    1.580109e+00
  1.768955e+01    1.551858e+00
  1.780067e+01    1.553228e+00
  1.791180e+01    1.524668e+00
  1.802293e+01    1.509691e+00
  1.813406e+01    1.496974e+00
  1.824519e+01    1.501137e+00
  1.835632e+01    1.472485e+00
  1.846745e+01    1.431627e+00
  1.857858e+01    1.456102e+00
  1.868971e+01    1.418666e+00
  1.880084e+01    1.396407e+00
  1.891196e+01    1.354696e+00
  1.902309e+01    1.397804e+00
  1.913422e+01    1.362360e+00
  1.924535e+01    1.350731e+00
  1.935648e+01    1.337237e+00
  1.946761e+01    1.348752e+00
  1.957874e+01    1.295432e+00
  1.968987e+01    1.325174e+00
  1.980100e+01    1.307249e+00
  1.991213e+01    1.283552e+00
  2.002325e+01    1.265916e+00
  2.013438e+01    1.271679e+00
  2.024551e+01    1.268868e+00
  2.035664e+01    1.248899e+00
  2.046777e+01    1.240181e+00
  2.057890e+01    1.246906e+00
  2.069003e+01    1.220227e+00
  2.080116e+01    1.234336e+00
  2.091229e+01    1.247312e+00
  2.102342e+01    1.222514e+00
  2.113455e+01    1.224261e+00
  2.124567e+01    1.247650e+00
  2.135680e+01    1.280275e+00
  2.146793e+01    1.386557e+00
  2.157906e+01    1.618563e+00
  2.169019e+01    2.517436e+00
  2.180132e+01    5.850551e+00
  2.191245e+01    8.760420e+00
  2.202358e+01    3.626245e+00
  2.213471e+01    1.871057e+00
  2.224584e+01    1.421227e+00
  2.235696e+01    1.257533e+00
  2.246809e+01    1.158281e+00
  2.257922e+01    1.132536e+00
  2.269035e+01    1.079165e+00
  2.280148e+01    1.038544e+00
  2.291261e+01    1.027929e+00
  2.302374e+01    1.016064e+00
  2.313487e+01    1.013323e+00
  2.324600e+01    1.004511e+00
  2.335713e+01    9.972907e-01
  2.346825e+01    9.704884e-01
  2.357938e+01    9.662234e-01
  2.369051e+01    9.446430e-01
  2.380164e+01    9.079267e-01
  2.391277e+01    9.232686e-01
  2.402390e+01    8.975434e-01
  2.413503e+01    8.776219e-01
  2.424616e+01    8.519937e-01
  2.435729e+01    9.013364e-01
  2.446842e+01    8.747645e-01
  2.457954e+01    9.078878e-01
  2.469067e+01    8.931428e-01
  2.480180e+01    8.794075e-01
  2.491293e+01    8.948783e-01
  2.502406e+01    8.730874e-01
  2.513519e+01    8.918109e-01
  2.524632e+01    9.512807e-01
  2.535745e+01    9.634718e-01
  2.546858e+01    1.031147e+00
  2.557971e+01    1.161071e+00
  2.569083e+01    1.502007e+00
  2.580196e+01    2.796302e+00
  2.591309e+01    6.292368e+00
  2.602422e+01    5.364884e+00
  2.613535e+01    2.170074e+00
  2.624648e+01    1.342079e+00
  2.635761e+01    1.100745e+00
  2.646874e+01    1.021277e+00
  2.657987e+01    9.903472e-01
  2.669100e+01    9.559277e-01
  2.680212e+01    9.817351e-01
  2.691325e+01    1.002985e+00
  2.702438e+01    1.161154e+00
  2.713551e+01    1.712371e+00
  2.724664e+01    2.104862e+00
  2.735777e+01    1.290202e+00
  2.746890e+01    1.014669e+00
  2.758003e+01    9.488546e-01
  2.769116e+01    9.152255e-01
  2.780229e+01    9.077482e-01
  2.791342e+01    8.805371e-01
  2.802454e+01    8.658504e-01
  2.813567e+01    8.714619e-01
  2.824680e+01    8.520805e-01
  2.835793e+01    8.311155e-01
  2.846906e+01    8.452497e-01
  2.858019e+01    8.127624e-01
  2.869132e+01    8.014717e-01
  2.880245e+01    8.282782e-01
  2.891358e+01    8.135889e-01
  2.902471e+01    8.076553e-01
  2.913583e+01    8.163511e-01
  2.924696e+01    8.025019e-01
  2.935809e+01    7.958300e-01
  2.946922e+01    8.003043e-01
  2.958035e+01    7.918019e-01
  2.969148e+01    8.094120e-01
  2.980261e+01    7.970982e-01
  2.991374e+01    7.846717e-01
  3.002487e+01    8.093825e-01
  3.013600e+01    8.010142e-01
  3.024712e+01    8.002084e-01
  3.035825e+01    7.848473e-01
  3.046938e+01    7.844607e-01
  3.058051e+01    7.808366e-01
  3.069164e+01    7.644153e-01
  3.080277e+01    7.804357e-01
  3.091390e+01    7.678236e-01
  3.102503e+01    8.020486e-01
  3.113616e+01    7.863209e-01
  3.124729e+01    8.010063e-01
  3.135841e+01    8.283365e-01
  3.146954e+01    8.128661e-01
  3.158067e+01    8.529238e-01
  3.169180e+01    1.002231e+00
  3.180293e+01    1.440357e+00
  3.191406e+01    2.075768e+00
  3.202519e+01    1.338933e+00
  3.213632e+01    9.304975e-01
  3.224745e+01    8.603698e-01
  3.235858e+01    8.256254e-01
  3.246970e+01    7.943099e-01
  3.254908e+01    7.750623e-01