File: XRD/Reaction conditions/2024-07-27_003_Ru-CGO-ex_Reaction_dwell_000023_data_000008.dat
# == pyFAI calibration ==
# Distance Sample to Detector: 0.4 m
# PONI: 9.750e-02, 1.135e-01 m
# Rotations: -0.000175 0.000000 -0.000000 rad
#
# == Fit2d calibration ==
# Distance Sample-beamCenter: 400.000 mm
# Center: x=1514.000, y=1300.000 pix
# Tilt: 0.010 deg  TiltPlanRot: 0.010 deg
#
# Detector Detector	 Spline= None	 PixelSize= 7.500e-05, 7.500e-05 m
#    Detector has a mask: False
#    Detector has a dark current: False
#    detector has a flat field: False
#
# Wavelength: 6.888e-11 m
# Mask applied: user provided
# Dark current applied: False
# Flat field applied: False
# Polarization factor: 0.99
# Normalization factor: 1.0
# --> /home/myspot/data/2024_07_Rosario/Ru-CGO-ex/2024-07-27_003_Ru-CGO-ex_Reaction_dwell_000023_data_000008.dat
#       q_nm^-1             I
  2.003187e-02    0.000000e+00
  1.311609e-01    3.385221e-02
  2.422899e-01    4.681326e-02
  3.534189e-01    3.327223e-02
  4.645479e-01    6.720394e-02
  5.756770e-01    4.748145e-02
  6.868060e-01    3.314741e-02
  7.979350e-01    1.400347e-01
  9.090640e-01    6.087414e-01
  1.020193e+00    1.221829e+00
  1.131322e+00    1.575561e+00
  1.242451e+00    2.432731e+00
  1.353580e+00    2.697412e+00
  1.464709e+00    3.061123e+00
  1.575838e+00    3.167557e+00
  1.686967e+00    3.086686e+00
  1.798096e+00    3.071511e+00
  1.909225e+00    3.059145e+00
  2.020354e+00    3.081787e+00
  2.131483e+00    3.008095e+00
  2.242612e+00    3.089758e+00
  2.353741e+00    3.134238e+00
  2.464870e+00    3.231699e+00
  2.575999e+00    3.173560e+00
  2.687128e+00    3.248106e+00
  2.798257e+00    3.182425e+00
  2.909386e+00    3.337350e+00
  3.020515e+00    3.270859e+00
  3.131644e+00    3.418083e+00
  3.242773e+00    3.370129e+00
  3.353902e+00    3.499573e+00
  3.465031e+00    3.379855e+00
  3.576160e+00    3.484459e+00
  3.687289e+00    3.449895e+00
  3.798418e+00    3.505962e+00
  3.909547e+00    3.515317e+00
  4.020676e+00    3.465719e+00
  4.131806e+00    3.501109e+00
  4.242935e+00    3.525426e+00
  4.354064e+00    3.568922e+00
  4.465193e+00    3.602815e+00
  4.576322e+00    3.670162e+00
  4.687451e+00    3.623287e+00
  4.798580e+00    3.559645e+00
  4.909709e+00    3.546674e+00
  5.020838e+00    3.719897e+00
  5.131967e+00    3.636974e+00
  5.243096e+00    3.654084e+00
  5.354225e+00    3.685156e+00
  5.465354e+00    3.685656e+00
  5.576483e+00    3.576288e+00
  5.687612e+00    3.577922e+00
  5.798741e+00    3.515810e+00
  5.909870e+00    3.660051e+00
  6.020999e+00    3.534717e+00
  6.132128e+00    3.662803e+00
  6.243257e+00    3.541316e+00
  6.354386e+00    3.574956e+00
  6.465515e+00    3.517356e+00
  6.576644e+00    3.598954e+00
  6.687773e+00    3.637979e+00
  6.798902e+00    3.559165e+00
  6.910031e+00    3.523460e+00
  7.021160e+00    3.520289e+00
  7.132289e+00    3.576853e+00
  7.243418e+00    3.621178e+00
  7.354547e+00    3.453893e+00
  7.465676e+00    3.563641e+00
  7.576805e+00    3.503119e+00
  7.687934e+00    3.456434e+00
  7.799063e+00    3.417199e+00
  7.910192e+00    3.479894e+00
  8.021321e+00    3.405140e+00
  8.132450e+00    3.510604e+00
  8.243579e+00    3.461413e+00
  8.354708e+00    3.353765e+00
  8.465837e+00    3.325053e+00
  8.576966e+00    3.447530e+00
  8.688095e+00    3.324456e+00
  8.799224e+00    3.357915e+00
  8.910353e+00    3.308102e+00
  9.021482e+00    3.287325e+00
  9.132611e+00    3.297880e+00
  9.243740e+00    3.232553e+00
  9.354869e+00    3.283638e+00
  9.465998e+00    3.200512e+00
  9.577127e+00    3.218600e+00
  9.688256e+00    3.191678e+00
  9.799385e+00    3.241534e+00
  9.910514e+00    3.155931e+00
  1.002164e+01    3.179024e+00
  1.013277e+01    3.088383e+00
  1.024390e+01    3.062167e+00
  1.035503e+01    3.083491e+00
  1.046616e+01    2.997874e+00
  1.057729e+01    3.000052e+00
  1.068842e+01    3.014495e+00
  1.079955e+01    2.886449e+00
  1.091068e+01    2.961540e+00
  1.102180e+01    2.897245e+00
  1.113293e+01    2.845562e+00
  1.124406e+01    2.886567e+00
  1.135519e+01    2.876291e+00
  1.146632e+01    2.849075e+00
  1.157745e+01    2.752909e+00
  1.168858e+01    2.715296e+00
  1.179971e+01    2.775939e+00
  1.191084e+01    2.740663e+00
  1.202197e+01    2.700681e+00
  1.213309e+01    2.709757e+00
  1.224422e+01    2.682452e+00
  1.235535e+01    2.698963e+00
  1.246648e+01    2.686405e+00
  1.257761e+01    2.724553e+00
  1.268874e+01    2.770411e+00
  1.279987e+01    3.001959e+00
  1.291100e+01    3.668763e+00
  1.302213e+01    6.694344e+00
  1.313326e+01    1.478384e+01
  1.324438e+01    1.063480e+01
  1.335551e+01    4.436736e+00
  1.346664e+01    3.124534e+00
  1.357777e+01    2.732004e+00
  1.368890e+01    2.595225e+00
  1.380003e+01    2.487621e+00
  1.391116e+01    2.399338e+00
  1.402229e+01    2.379211e+00
  1.413342e+01    2.336833e+00
  1.424455e+01    2.266945e+00
  1.435568e+01    2.273446e+00
  1.446680e+01    2.266455e+00
  1.457793e+01    2.213857e+00
  1.468906e+01    2.213867e+00
  1.480019e+01    2.159015e+00
  1.491132e+01    2.260487e+00
  1.502245e+01    2.523213e+00
  1.513358e+01    3.790196e+00
  1.524471e+01    5.728326e+00
  1.535584e+01    3.783519e+00
  1.546697e+01    2.441668e+00
  1.557809e+01    2.108364e+00
  1.568922e+01    2.007994e+00
  1.580035e+01    1.963991e+00
  1.591148e+01    1.911497e+00
  1.602261e+01    1.884589e+00
  1.613374e+01    1.886333e+00
  1.624487e+01    1.790574e+00
  1.635600e+01    1.820195e+00
  1.646713e+01    1.809234e+00
  1.657826e+01    1.710062e+00
  1.668938e+01    1.711031e+00
  1.680051e+01    1.682628e+00
  1.691164e+01    1.685183e+00
  1.702277e+01    1.683681e+00
  1.713390e+01    1.655038e+00
  1.724503e+01    1.622507e+00
  1.735616e+01    1.617689e+00
  1.746729e+01    1.610892e+00
  1.757842e+01    1.587482e+00
  1.768955e+01    1.522538e+00
  1.780067e+01    1.531486e+00
  1.791180e+01    1.526310e+00
  1.802293e+01    1.487830e+00
  1.813406e+01    1.507121e+00
  1.824519e+01    1.527120e+00
  1.835632e+01    1.474240e+00
  1.846745e+01    1.454765e+00
  1.857858e+01    1.442860e+00
  1.868971e+01    1.418211e+00
  1.880084e+01    1.403868e+00
  1.891196e+01    1.376077e+00
  1.902309e+01    1.384303e+00
  1.913422e+01    1.353971e+00
  1.924535e+01    1.334607e+00
  1.935648e+01    1.339932e+00
  1.946761e+01    1.338629e+00
  1.957874e+01    1.324273e+00
  1.968987e+01    1.293944e+00
  1.980100e+01    1.281799e+00
  1.991213e+01    1.301443e+00
  2.002325e+01    1.286031e+00
  2.013438e+01    1.261859e+00
  2.024551e+01    1.252291e+00
  2.035664e+01    1.256768e+00
  2.046777e+01    1.276081e+00
  2.057890e+01    1.237140e+00
  2.069003e+01    1.226252e+00
  2.080116e+01    1.223150e+00
  2.091229e+01    1.221726e+00
  2.102342e+01    1.239103e+00
  2.113455e+01    1.228340e+00
  2.124567e+01    1.261170e+00
  2.135680e+01    1.308433e+00
  2.146793e+01    1.358350e+00
  2.157906e+01    1.603229e+00
  2.169019e+01    2.501351e+00
  2.180132e+01    5.888256e+00
  2.191245e+01    8.689500e+00
  2.202358e+01    3.595808e+00
  2.213471e+01    1.877210e+00
  2.224584e+01    1.413887e+00
  2.235696e+01    1.231777e+00
  2.246809e+01    1.170812e+00
  2.257922e+01    1.108224e+00
  2.269035e+01    1.087102e+00
  2.280148e+01    1.069833e+00
  2.291261e+01    1.019491e+00
  2.302374e+01    1.026204e+00
  2.313487e+01    1.016283e+00
  2.324600e+01    9.819343e-01
  2.335713e+01    9.732690e-01
  2.346825e+01    9.659574e-01
  2.357938e+01    9.521505e-01
  2.369051e+01    9.222684e-01
  2.380164e+01    9.330077e-01
  2.391277e+01    9.066983e-01
  2.402390e+01    8.966924e-01
  2.413503e+01    9.265368e-01
  2.424616e+01    8.828748e-01
  2.435729e+01    8.850375e-01
  2.446842e+01    8.989542e-01
  2.457954e+01    9.121290e-01
  2.469067e+01    8.957427e-01
  2.480180e+01    8.937827e-01
  2.491293e+01    8.772987e-01
  2.502406e+01    9.131649e-01
  2.513519e+01    8.886837e-01
  2.524632e+01    9.398764e-01
  2.535745e+01    9.653931e-01
  2.546858e+01    1.024541e+00
  2.557971e+01    1.132336e+00
  2.569083e+01    1.506716e+00
  2.580196e+01    2.766751e+00
  2.591309e+01    6.343100e+00
  2.602422e+01    5.284971e+00
  2.613535e+01    2.133570e+00
  2.624648e+01    1.328352e+00
  2.635761e+01    1.104469e+00
  2.646874e+01    1.034133e+00
  2.657987e+01    9.805984e-01
  2.669100e+01    9.591354e-01
  2.680212e+01    9.621155e-01
  2.691325e+01    1.014161e+00
  2.702438e+01    1.168532e+00
  2.713551e+01    1.717521e+00
  2.724664e+01    2.071167e+00
  2.735777e+01    1.293074e+00
  2.746890e+01    9.998512e-01
  2.758003e+01    9.519321e-01
  2.769116e+01    9.296035e-01
  2.780229e+01    8.821878e-01
  2.791342e+01    8.874922e-01
  2.802454e+01    8.570628e-01
  2.813567e+01    8.503259e-01
  2.824680e+01    8.684320e-01
  2.835793e+01    8.604083e-01
  2.846906e+01    8.627279e-01
  2.858019e+01    8.422525e-01
  2.869132e+01    8.323963e-01
  2.880245e+01    8.216348e-01
  2.891358e+01    8.160362e-01
  2.902471e+01    8.027676e-01
  2.913583e+01    8.252119e-01
  2.924696e+01    8.273508e-01
  2.935809e+01    8.174709e-01
  2.946922e+01    8.119392e-01
  2.958035e+01    8.146130e-01
  2.969148e+01    7.844017e-01
  2.980261e+01    7.964867e-01
  2.991374e+01    7.947243e-01
  3.002487e+01    8.028021e-01
  3.013600e+01    7.863653e-01
  3.024712e+01    7.940691e-01
  3.035825e+01    7.978990e-01
  3.046938e+01    7.789465e-01
  3.058051e+01    7.845235e-01
  3.069164e+01    7.775058e-01
  3.080277e+01    7.875035e-01
  3.091390e+01    7.853104e-01
  3.102503e+01    7.847806e-01
  3.113616e+01    8.022826e-01
  3.124729e+01    7.830659e-01
  3.135841e+01    7.932436e-01
  3.146954e+01    8.209592e-01
  3.158067e+01    8.822262e-01
  3.169180e+01    9.948654e-01
  3.180293e+01    1.433555e+00
  3.191406e+01    2.082308e+00
  3.202519e+01    1.302126e+00
  3.213632e+01    9.382309e-01
  3.224745e+01    8.573638e-01
  3.235858e+01    8.071083e-01
  3.246970e+01    7.825269e-01
  3.254908e+01    7.810875e-01