File: XRD/Reaction conditions/2024-07-27_003_Ru-CGO-ex_Reaction_dwell_000023_data_000062.dat
# == pyFAI calibration ==
# Distance Sample to Detector: 0.4 m
# PONI: 9.750e-02, 1.135e-01 m
# Rotations: -0.000175 0.000000 -0.000000 rad
#
# == Fit2d calibration ==
# Distance Sample-beamCenter: 400.000 mm
# Center: x=1514.000, y=1300.000 pix
# Tilt: 0.010 deg  TiltPlanRot: 0.010 deg
#
# Detector Detector	 Spline= None	 PixelSize= 7.500e-05, 7.500e-05 m
#    Detector has a mask: False
#    Detector has a dark current: False
#    detector has a flat field: False
#
# Wavelength: 6.888e-11 m
# Mask applied: user provided
# Dark current applied: False
# Flat field applied: False
# Polarization factor: 0.99
# Normalization factor: 1.0
# --> /home/myspot/data/2024_07_Rosario/Ru-CGO-ex/2024-07-27_003_Ru-CGO-ex_Reaction_dwell_000023_data_000062.dat
#       q_nm^-1             I
  2.003187e-02    1.424646e-01
  1.311609e-01    4.277320e-02
  2.422899e-01    2.845418e-02
  3.534189e-01    2.711408e-02
  4.645479e-01    2.771678e-02
  5.756770e-01    3.474315e-02
  6.868060e-01    4.860459e-02
  7.979350e-01    1.206174e-01
  9.090640e-01    6.932358e-01
  1.020193e+00    1.323057e+00
  1.131322e+00    1.619822e+00
  1.242451e+00    2.345358e+00
  1.353580e+00    2.665824e+00
  1.464709e+00    2.969946e+00
  1.575838e+00    3.210245e+00
  1.686967e+00    3.174254e+00
  1.798096e+00    3.168514e+00
  1.909225e+00    2.974174e+00
  2.020354e+00    2.935323e+00
  2.131483e+00    3.087890e+00
  2.242612e+00    3.153471e+00
  2.353741e+00    3.079261e+00
  2.464870e+00    3.215343e+00
  2.575999e+00    3.118218e+00
  2.687128e+00    3.241465e+00
  2.798257e+00    3.312908e+00
  2.909386e+00    3.339094e+00
  3.020515e+00    3.393024e+00
  3.131644e+00    3.369092e+00
  3.242773e+00    3.448998e+00
  3.353902e+00    3.399137e+00
  3.465031e+00    3.441687e+00
  3.576160e+00    3.572152e+00
  3.687289e+00    3.516886e+00
  3.798418e+00    3.584967e+00
  3.909547e+00    3.603094e+00
  4.020676e+00    3.539043e+00
  4.131806e+00    3.537208e+00
  4.242935e+00    3.566859e+00
  4.354064e+00    3.562056e+00
  4.465193e+00    3.615176e+00
  4.576322e+00    3.548065e+00
  4.687451e+00    3.696934e+00
  4.798580e+00    3.688089e+00
  4.909709e+00    3.679415e+00
  5.020838e+00    3.642705e+00
  5.131967e+00    3.581755e+00
  5.243096e+00    3.649533e+00
  5.354225e+00    3.649924e+00
  5.465354e+00    3.634848e+00
  5.576483e+00    3.590014e+00
  5.687612e+00    3.545837e+00
  5.798741e+00    3.580423e+00
  5.909870e+00    3.532941e+00
  6.020999e+00    3.522633e+00
  6.132128e+00    3.584821e+00
  6.243257e+00    3.640055e+00
  6.354386e+00    3.522607e+00
  6.465515e+00    3.573329e+00
  6.576644e+00    3.555239e+00
  6.687773e+00    3.565596e+00
  6.798902e+00    3.565904e+00
  6.910031e+00    3.541874e+00
  7.021160e+00    3.480420e+00
  7.132289e+00    3.560342e+00
  7.243418e+00    3.458815e+00
  7.354547e+00    3.516779e+00
  7.465676e+00    3.428799e+00
  7.576805e+00    3.512933e+00
  7.687934e+00    3.469476e+00
  7.799063e+00    3.424232e+00
  7.910192e+00    3.440141e+00
  8.021321e+00    3.430956e+00
  8.132450e+00    3.375169e+00
  8.243579e+00    3.482213e+00
  8.354708e+00    3.395375e+00
  8.465837e+00    3.422136e+00
  8.576966e+00    3.303171e+00
  8.688095e+00    3.315356e+00
  8.799224e+00    3.359985e+00
  8.910353e+00    3.355829e+00
  9.021482e+00    3.226255e+00
  9.132611e+00    3.229890e+00
  9.243740e+00    3.227731e+00
  9.354869e+00    3.233426e+00
  9.465998e+00    3.224766e+00
  9.577127e+00    3.218889e+00
  9.688256e+00    3.203245e+00
  9.799385e+00    3.178510e+00
  9.910514e+00    3.139195e+00
  1.002164e+01    3.146683e+00
  1.013277e+01    3.085230e+00
  1.024390e+01    3.048516e+00
  1.035503e+01    3.024780e+00
  1.046616e+01    3.067692e+00
  1.057729e+01    2.989378e+00
  1.068842e+01    2.964885e+00
  1.079955e+01    2.922751e+00
  1.091068e+01    2.950910e+00
  1.102180e+01    2.908091e+00
  1.113293e+01    2.896180e+00
  1.124406e+01    2.894569e+00
  1.135519e+01    2.888211e+00
  1.146632e+01    2.810675e+00
  1.157745e+01    2.834424e+00
  1.168858e+01    2.752135e+00
  1.179971e+01    2.765653e+00
  1.191084e+01    2.724399e+00
  1.202197e+01    2.719422e+00
  1.213309e+01    2.647016e+00
  1.224422e+01    2.689067e+00
  1.235535e+01    2.688361e+00
  1.246648e+01    2.703309e+00
  1.257761e+01    2.714044e+00
  1.268874e+01    2.767590e+00
  1.279987e+01    2.996215e+00
  1.291100e+01    3.714625e+00
  1.302213e+01    6.843173e+00
  1.313326e+01    1.496065e+01
  1.324438e+01    1.057920e+01
  1.335551e+01    4.356276e+00
  1.346664e+01    3.141414e+00
  1.357777e+01    2.718148e+00
  1.368890e+01    2.591233e+00
  1.380003e+01    2.496400e+00
  1.391116e+01    2.410559e+00
  1.402229e+01    2.359107e+00
  1.413342e+01    2.320192e+00
  1.424455e+01    2.284449e+00
  1.435568e+01    2.246582e+00
  1.446680e+01    2.196077e+00
  1.457793e+01    2.192955e+00
  1.468906e+01    2.178336e+00
  1.480019e+01    2.237034e+00
  1.491132e+01    2.214210e+00
  1.502245e+01    2.495480e+00
  1.513358e+01    3.857549e+00
  1.524471e+01    5.731798e+00
  1.535584e+01    3.784580e+00
  1.546697e+01    2.435463e+00
  1.557809e+01    2.159853e+00
  1.568922e+01    1.991566e+00
  1.580035e+01    1.942318e+00
  1.591148e+01    1.890767e+00
  1.602261e+01    1.903159e+00
  1.613374e+01    1.867224e+00
  1.624487e+01    1.816313e+00
  1.635600e+01    1.783260e+00
  1.646713e+01    1.791168e+00
  1.657826e+01    1.764162e+00
  1.668938e+01    1.722823e+00
  1.680051e+01    1.722783e+00
  1.691164e+01    1.656553e+00
  1.702277e+01    1.644025e+00
  1.713390e+01    1.655251e+00
  1.724503e+01    1.665208e+00
  1.735616e+01    1.631954e+00
  1.746729e+01    1.606847e+00
  1.757842e+01    1.582431e+00
  1.768955e+01    1.563916e+00
  1.780067e+01    1.540129e+00
  1.791180e+01    1.534389e+00
  1.802293e+01    1.509295e+00
  1.813406e+01    1.495799e+00
  1.824519e+01    1.482343e+00
  1.835632e+01    1.452309e+00
  1.846745e+01    1.432984e+00
  1.857858e+01    1.453372e+00
  1.868971e+01    1.416245e+00
  1.880084e+01    1.393764e+00
  1.891196e+01    1.418505e+00
  1.902309e+01    1.393906e+00
  1.913422e+01    1.366719e+00
  1.924535e+01    1.349155e+00
  1.935648e+01    1.315027e+00
  1.946761e+01    1.331003e+00
  1.957874e+01    1.330021e+00
  1.968987e+01    1.326182e+00
  1.980100e+01    1.285101e+00
  1.991213e+01    1.291150e+00
  2.002325e+01    1.279749e+00
  2.013438e+01    1.284183e+00
  2.024551e+01    1.265036e+00
  2.035664e+01    1.248246e+00
  2.046777e+01    1.250292e+00
  2.057890e+01    1.238465e+00
  2.069003e+01    1.216164e+00
  2.080116e+01    1.204372e+00
  2.091229e+01    1.208344e+00
  2.102342e+01    1.236291e+00
  2.113455e+01    1.248070e+00
  2.124567e+01    1.252327e+00
  2.135680e+01    1.278450e+00
  2.146793e+01    1.357128e+00
  2.157906e+01    1.610774e+00
  2.169019e+01    2.537336e+00
  2.180132e+01    5.951522e+00
  2.191245e+01    8.728207e+00
  2.202358e+01    3.618029e+00
  2.213471e+01    1.841490e+00
  2.224584e+01    1.401109e+00
  2.235696e+01    1.208921e+00
  2.246809e+01    1.152703e+00
  2.257922e+01    1.107692e+00
  2.269035e+01    1.119493e+00
  2.280148e+01    1.074018e+00
  2.291261e+01    1.041001e+00
  2.302374e+01    1.014161e+00
  2.313487e+01    1.032617e+00
  2.324600e+01    1.009690e+00
  2.335713e+01    9.792681e-01
  2.346825e+01    9.523073e-01
  2.357938e+01    9.679806e-01
  2.369051e+01    9.407148e-01
  2.380164e+01    9.382125e-01
  2.391277e+01    9.295789e-01
  2.402390e+01    9.037455e-01
  2.413503e+01    8.886204e-01
  2.424616e+01    8.821489e-01
  2.435729e+01    8.783640e-01
  2.446842e+01    8.839763e-01
  2.457954e+01    9.058298e-01
  2.469067e+01    9.008806e-01
  2.480180e+01    9.117471e-01
  2.491293e+01    8.837924e-01
  2.502406e+01    9.025903e-01
  2.513519e+01    9.339088e-01
  2.524632e+01    9.489200e-01
  2.535745e+01    9.887552e-01
  2.546858e+01    1.054509e+00
  2.557971e+01    1.156207e+00
  2.569083e+01    1.529819e+00
  2.580196e+01    2.879489e+00
  2.591309e+01    6.433905e+00
  2.602422e+01    5.173597e+00
  2.613535e+01    2.108551e+00
  2.624648e+01    1.337953e+00
  2.635761e+01    1.111883e+00
  2.646874e+01    1.021360e+00
  2.657987e+01    9.594329e-01
  2.669100e+01    9.749125e-01
  2.680212e+01    9.824297e-01
  2.691325e+01    1.011629e+00
  2.702438e+01    1.153383e+00
  2.713551e+01    1.754529e+00
  2.724664e+01    2.059891e+00
  2.735777e+01    1.269320e+00
  2.746890e+01    1.029574e+00
  2.758003e+01    9.265228e-01
  2.769116e+01    9.091168e-01
  2.780229e+01    8.754901e-01
  2.791342e+01    9.156537e-01
  2.802454e+01    8.656370e-01
  2.813567e+01    8.622928e-01
  2.824680e+01    8.467736e-01
  2.835793e+01    8.510770e-01
  2.846906e+01    8.372301e-01
  2.858019e+01    8.516085e-01
  2.869132e+01    8.265360e-01
  2.880245e+01    8.157095e-01
  2.891358e+01    8.200735e-01
  2.902471e+01    8.168074e-01
  2.913583e+01    8.164028e-01
  2.924696e+01    8.057111e-01
  2.935809e+01    7.891013e-01
  2.946922e+01    8.078775e-01
  2.958035e+01    7.954677e-01
  2.969148e+01    7.971185e-01
  2.980261e+01    7.911059e-01
  2.991374e+01    7.909371e-01
  3.002487e+01    8.076752e-01
  3.013600e+01    7.885579e-01
  3.024712e+01    7.869728e-01
  3.035825e+01    7.791016e-01
  3.046938e+01    8.090181e-01
  3.058051e+01    8.019638e-01
  3.069164e+01    8.162703e-01
  3.080277e+01    7.789169e-01
  3.091390e+01    7.688441e-01
  3.102503e+01    7.952603e-01
  3.113616e+01    7.807201e-01
  3.124729e+01    7.897798e-01
  3.135841e+01    8.242572e-01
  3.146954e+01    8.165355e-01
  3.158067e+01    8.624722e-01
  3.169180e+01    9.864525e-01
  3.180293e+01    1.451207e+00
  3.191406e+01    2.078956e+00
  3.202519e+01    1.320384e+00
  3.213632e+01    9.323706e-01
  3.224745e+01    8.303083e-01
  3.235858e+01    8.323933e-01
  3.246970e+01    7.963548e-01
  3.254908e+01    7.730672e-01