File: XRD/Reaction conditions/2024-07-27_003_Ru-CGO-ex_Reaction_dwell_000023_data_000018.dat
# == pyFAI calibration ==
# Distance Sample to Detector: 0.4 m
# PONI: 9.750e-02, 1.135e-01 m
# Rotations: -0.000175 0.000000 -0.000000 rad
#
# == Fit2d calibration ==
# Distance Sample-beamCenter: 400.000 mm
# Center: x=1514.000, y=1300.000 pix
# Tilt: 0.010 deg  TiltPlanRot: 0.010 deg
#
# Detector Detector	 Spline= None	 PixelSize= 7.500e-05, 7.500e-05 m
#    Detector has a mask: False
#    Detector has a dark current: False
#    detector has a flat field: False
#
# Wavelength: 6.888e-11 m
# Mask applied: user provided
# Dark current applied: False
# Flat field applied: False
# Polarization factor: 0.99
# Normalization factor: 1.0
# --> /home/myspot/data/2024_07_Rosario/Ru-CGO-ex/2024-07-27_003_Ru-CGO-ex_Reaction_dwell_000023_data_000018.dat
#       q_nm^-1             I
  2.003187e-02    2.195834e-01
  1.311609e-01    3.712414e-02
  2.422899e-01    8.273365e-02
  3.534189e-01    6.809472e-02
  4.645479e-01    2.707738e-02
  5.756770e-01    2.031009e-02
  6.868060e-01    3.977485e-02
  7.979350e-01    1.754698e-01
  9.090640e-01    6.626022e-01
  1.020193e+00    1.231611e+00
  1.131322e+00    1.672851e+00
  1.242451e+00    2.393284e+00
  1.353580e+00    2.837705e+00
  1.464709e+00    3.052381e+00
  1.575838e+00    3.211132e+00
  1.686967e+00    3.162905e+00
  1.798096e+00    2.981874e+00
  1.909225e+00    3.032076e+00
  2.020354e+00    3.068254e+00
  2.131483e+00    3.107116e+00
  2.242612e+00    3.153823e+00
  2.353741e+00    3.196035e+00
  2.464870e+00    3.101596e+00
  2.575999e+00    3.384436e+00
  2.687128e+00    3.232458e+00
  2.798257e+00    3.193257e+00
  2.909386e+00    3.351390e+00
  3.020515e+00    3.372754e+00
  3.131644e+00    3.346395e+00
  3.242773e+00    3.483671e+00
  3.353902e+00    3.412542e+00
  3.465031e+00    3.402264e+00
  3.576160e+00    3.496303e+00
  3.687289e+00    3.538689e+00
  3.798418e+00    3.538941e+00
  3.909547e+00    3.541497e+00
  4.020676e+00    3.613243e+00
  4.131806e+00    3.559826e+00
  4.242935e+00    3.574029e+00
  4.354064e+00    3.600912e+00
  4.465193e+00    3.618058e+00
  4.576322e+00    3.589286e+00
  4.687451e+00    3.656359e+00
  4.798580e+00    3.618392e+00
  4.909709e+00    3.725369e+00
  5.020838e+00    3.682698e+00
  5.131967e+00    3.834759e+00
  5.243096e+00    3.629727e+00
  5.354225e+00    3.649186e+00
  5.465354e+00    3.623910e+00
  5.576483e+00    3.666893e+00
  5.687612e+00    3.604417e+00
  5.798741e+00    3.694492e+00
  5.909870e+00    3.528725e+00
  6.020999e+00    3.628479e+00
  6.132128e+00    3.567270e+00
  6.243257e+00    3.568775e+00
  6.354386e+00    3.550719e+00
  6.465515e+00    3.513640e+00
  6.576644e+00    3.530685e+00
  6.687773e+00    3.518265e+00
  6.798902e+00    3.525224e+00
  6.910031e+00    3.599738e+00
  7.021160e+00    3.559282e+00
  7.132289e+00    3.501047e+00
  7.243418e+00    3.570057e+00
  7.354547e+00    3.514124e+00
  7.465676e+00    3.534704e+00
  7.576805e+00    3.531401e+00
  7.687934e+00    3.458311e+00
  7.799063e+00    3.455224e+00
  7.910192e+00    3.450699e+00
  8.021321e+00    3.414419e+00
  8.132450e+00    3.439426e+00
  8.243579e+00    3.455637e+00
  8.354708e+00    3.473258e+00
  8.465837e+00    3.365045e+00
  8.576966e+00    3.426935e+00
  8.688095e+00    3.369475e+00
  8.799224e+00    3.269788e+00
  8.910353e+00    3.358311e+00
  9.021482e+00    3.299539e+00
  9.132611e+00    3.350169e+00
  9.243740e+00    3.274797e+00
  9.354869e+00    3.203555e+00
  9.465998e+00    3.187716e+00
  9.577127e+00    3.278725e+00
  9.688256e+00    3.180866e+00
  9.799385e+00    3.219589e+00
  9.910514e+00    3.112775e+00
  1.002164e+01    3.102363e+00
  1.013277e+01    3.128348e+00
  1.024390e+01    3.002053e+00
  1.035503e+01    2.999527e+00
  1.046616e+01    3.033378e+00
  1.057729e+01    2.934491e+00
  1.068842e+01    2.974943e+00
  1.079955e+01    2.920903e+00
  1.091068e+01    2.934670e+00
  1.102180e+01    2.903194e+00
  1.113293e+01    2.862788e+00
  1.124406e+01    2.882064e+00
  1.135519e+01    2.870568e+00
  1.146632e+01    2.836019e+00
  1.157745e+01    2.763168e+00
  1.168858e+01    2.822707e+00
  1.179971e+01    2.740975e+00
  1.191084e+01    2.708021e+00
  1.202197e+01    2.721010e+00
  1.213309e+01    2.712346e+00
  1.224422e+01    2.677308e+00
  1.235535e+01    2.716797e+00
  1.246648e+01    2.709876e+00
  1.257761e+01    2.767178e+00
  1.268874e+01    2.803472e+00
  1.279987e+01    3.044953e+00
  1.291100e+01    3.642097e+00
  1.302213e+01    6.756832e+00
  1.313326e+01    1.497337e+01
  1.324438e+01    1.072026e+01
  1.335551e+01    4.416351e+00
  1.346664e+01    3.129947e+00
  1.357777e+01    2.768320e+00
  1.368890e+01    2.593892e+00
  1.380003e+01    2.492692e+00
  1.391116e+01    2.445037e+00
  1.402229e+01    2.412118e+00
  1.413342e+01    2.279667e+00
  1.424455e+01    2.302387e+00
  1.435568e+01    2.265574e+00
  1.446680e+01    2.234826e+00
  1.457793e+01    2.245731e+00
  1.468906e+01    2.213414e+00
  1.480019e+01    2.219609e+00
  1.491132e+01    2.226083e+00
  1.502245e+01    2.497311e+00
  1.513358e+01    3.784983e+00
  1.524471e+01    5.843986e+00
  1.535584e+01    3.768977e+00
  1.546697e+01    2.411351e+00
  1.557809e+01    2.141067e+00
  1.568922e+01    2.006630e+00
  1.580035e+01    1.946129e+00
  1.591148e+01    1.909796e+00
  1.602261e+01    1.886784e+00
  1.613374e+01    1.831517e+00
  1.624487e+01    1.821312e+00
  1.635600e+01    1.784062e+00
  1.646713e+01    1.803254e+00
  1.657826e+01    1.741215e+00
  1.668938e+01    1.727333e+00
  1.680051e+01    1.734257e+00
  1.691164e+01    1.680120e+00
  1.702277e+01    1.663906e+00
  1.713390e+01    1.654994e+00
  1.724503e+01    1.638693e+00
  1.735616e+01    1.621806e+00
  1.746729e+01    1.590992e+00
  1.757842e+01    1.599643e+00
  1.768955e+01    1.558055e+00
  1.780067e+01    1.560473e+00
  1.791180e+01    1.536034e+00
  1.802293e+01    1.501257e+00
  1.813406e+01    1.522918e+00
  1.824519e+01    1.482631e+00
  1.835632e+01    1.459587e+00
  1.846745e+01    1.451514e+00
  1.857858e+01    1.459684e+00
  1.868971e+01    1.442415e+00
  1.880084e+01    1.396117e+00
  1.891196e+01    1.388773e+00
  1.902309e+01    1.372787e+00
  1.913422e+01    1.374462e+00
  1.924535e+01    1.361597e+00
  1.935648e+01    1.382292e+00
  1.946761e+01    1.354960e+00
  1.957874e+01    1.319464e+00
  1.968987e+01    1.342420e+00
  1.980100e+01    1.306115e+00
  1.991213e+01    1.306080e+00
  2.002325e+01    1.299801e+00
  2.013438e+01    1.281725e+00
  2.024551e+01    1.253029e+00
  2.035664e+01    1.271036e+00
  2.046777e+01    1.249392e+00
  2.057890e+01    1.258076e+00
  2.069003e+01    1.252309e+00
  2.080116e+01    1.242989e+00
  2.091229e+01    1.226193e+00
  2.102342e+01    1.229733e+00
  2.113455e+01    1.225837e+00
  2.124567e+01    1.235583e+00
  2.135680e+01    1.298185e+00
  2.146793e+01    1.386309e+00
  2.157906e+01    1.626892e+00
  2.169019e+01    2.555333e+00
  2.180132e+01    5.895144e+00
  2.191245e+01    8.831205e+00
  2.202358e+01    3.630485e+00
  2.213471e+01    1.870850e+00
  2.224584e+01    1.423654e+00
  2.235696e+01    1.262521e+00
  2.246809e+01    1.153884e+00
  2.257922e+01    1.134512e+00
  2.269035e+01    1.084259e+00
  2.280148e+01    1.073577e+00
  2.291261e+01    1.010903e+00
  2.302374e+01    1.038814e+00
  2.313487e+01    1.023126e+00
  2.324600e+01    1.016744e+00
  2.335713e+01    9.666276e-01
  2.346825e+01    9.675900e-01
  2.357938e+01    9.628847e-01
  2.369051e+01    9.612173e-01
  2.380164e+01    9.550600e-01
  2.391277e+01    8.991660e-01
  2.402390e+01    8.911566e-01
  2.413503e+01    8.848147e-01
  2.424616e+01    8.975623e-01
  2.435729e+01    8.831125e-01
  2.446842e+01    8.980062e-01
  2.457954e+01    9.113343e-01
  2.469067e+01    8.877156e-01
  2.480180e+01    8.940411e-01
  2.491293e+01    8.980487e-01
  2.502406e+01    8.973849e-01
  2.513519e+01    9.172596e-01
  2.524632e+01    9.456529e-01
  2.535745e+01    9.806793e-01
  2.546858e+01    1.036959e+00
  2.557971e+01    1.168131e+00
  2.569083e+01    1.509397e+00
  2.580196e+01    2.814409e+00
  2.591309e+01    6.392616e+00
  2.602422e+01    5.351231e+00
  2.613535e+01    2.124280e+00
  2.624648e+01    1.335241e+00
  2.635761e+01    1.114904e+00
  2.646874e+01    1.009778e+00
  2.657987e+01    9.902577e-01
  2.669100e+01    9.805644e-01
  2.680212e+01    9.830363e-01
  2.691325e+01    1.012176e+00
  2.702438e+01    1.167422e+00
  2.713551e+01    1.748284e+00
  2.724664e+01    2.071316e+00
  2.735777e+01    1.289757e+00
  2.746890e+01    1.017512e+00
  2.758003e+01    9.327753e-01
  2.769116e+01    9.078681e-01
  2.780229e+01    9.152632e-01
  2.791342e+01    8.713205e-01
  2.802454e+01    8.762727e-01
  2.813567e+01    8.707477e-01
  2.824680e+01    8.845499e-01
  2.835793e+01    8.625630e-01
  2.846906e+01    8.426988e-01
  2.858019e+01    8.491016e-01
  2.869132e+01    8.455199e-01
  2.880245e+01    8.221303e-01
  2.891358e+01    8.160185e-01
  2.902471e+01    8.415291e-01
  2.913583e+01    8.225878e-01
  2.924696e+01    8.592973e-01
  2.935809e+01    8.210024e-01
  2.946922e+01    8.069860e-01
  2.958035e+01    8.027924e-01
  2.969148e+01    7.880776e-01
  2.980261e+01    8.057545e-01
  2.991374e+01    8.201479e-01
  3.002487e+01    8.173615e-01
  3.013600e+01    7.938212e-01
  3.024712e+01    7.971867e-01
  3.035825e+01    7.989203e-01
  3.046938e+01    7.882279e-01
  3.058051e+01    8.094894e-01
  3.069164e+01    7.920060e-01
  3.080277e+01    7.698452e-01
  3.091390e+01    7.748526e-01
  3.102503e+01    8.044031e-01
  3.113616e+01    8.036772e-01
  3.124729e+01    8.065762e-01
  3.135841e+01    8.024783e-01
  3.146954e+01    8.134152e-01
  3.158067e+01    8.698339e-01
  3.169180e+01    9.828622e-01
  3.180293e+01    1.451727e+00
  3.191406e+01    2.107231e+00
  3.202519e+01    1.350587e+00
  3.213632e+01    9.496373e-01
  3.224745e+01    8.216827e-01
  3.235858e+01    8.088098e-01
  3.246970e+01    8.113016e-01
  3.254908e+01    7.541080e-01