File: XRD/Reaction conditions/2024-07-27_003_Ru-CGO-ex_Reaction_dwell_000023_data_000169.dat
# == pyFAI calibration ==
# Distance Sample to Detector: 0.4 m
# PONI: 9.750e-02, 1.135e-01 m
# Rotations: -0.000175 0.000000 -0.000000 rad
#
# == Fit2d calibration ==
# Distance Sample-beamCenter: 400.000 mm
# Center: x=1514.000, y=1300.000 pix
# Tilt: 0.010 deg  TiltPlanRot: 0.010 deg
#
# Detector Detector	 Spline= None	 PixelSize= 7.500e-05, 7.500e-05 m
#    Detector has a mask: False
#    Detector has a dark current: False
#    detector has a flat field: False
#
# Wavelength: 6.888e-11 m
# Mask applied: user provided
# Dark current applied: False
# Flat field applied: False
# Polarization factor: 0.99
# Normalization factor: 1.0
# --> /home/myspot/data/2024_07_Rosario/Ru-CGO-ex/2024-07-27_003_Ru-CGO-ex_Reaction_dwell_000023_data_000169.dat
#       q_nm^-1             I
  2.003187e-02    0.000000e+00
  1.311609e-01    3.702336e-02
  2.422899e-01    6.371594e-02
  3.534189e-01    9.640116e-03
  4.645479e-01    4.797468e-02
  5.756770e-01    5.611480e-02
  6.868060e-01    2.971898e-02
  7.979350e-01    2.314542e-01
  9.090640e-01    6.669399e-01
  1.020193e+00    1.323453e+00
  1.131322e+00    1.602532e+00
  1.242451e+00    2.357132e+00
  1.353580e+00    2.677122e+00
  1.464709e+00    3.089965e+00
  1.575838e+00    3.160733e+00
  1.686967e+00    3.123139e+00
  1.798096e+00    3.026827e+00
  1.909225e+00    3.022167e+00
  2.020354e+00    2.928793e+00
  2.131483e+00    2.897550e+00
  2.242612e+00    3.128150e+00
  2.353741e+00    3.220183e+00
  2.464870e+00    3.223449e+00
  2.575999e+00    3.132509e+00
  2.687128e+00    3.199795e+00
  2.798257e+00    3.266860e+00
  2.909386e+00    3.356141e+00
  3.020515e+00    3.239771e+00
  3.131644e+00    3.319813e+00
  3.242773e+00    3.525582e+00
  3.353902e+00    3.400699e+00
  3.465031e+00    3.391809e+00
  3.576160e+00    3.399116e+00
  3.687289e+00    3.445001e+00
  3.798418e+00    3.306482e+00
  3.909547e+00    3.530970e+00
  4.020676e+00    3.491308e+00
  4.131806e+00    3.532986e+00
  4.242935e+00    3.522647e+00
  4.354064e+00    3.506563e+00
  4.465193e+00    3.612960e+00
  4.576322e+00    3.535187e+00
  4.687451e+00    3.623128e+00
  4.798580e+00    3.509090e+00
  4.909709e+00    3.545788e+00
  5.020838e+00    3.554250e+00
  5.131967e+00    3.637124e+00
  5.243096e+00    3.566943e+00
  5.354225e+00    3.683478e+00
  5.465354e+00    3.524298e+00
  5.576483e+00    3.627713e+00
  5.687612e+00    3.560096e+00
  5.798741e+00    3.475759e+00
  5.909870e+00    3.484548e+00
  6.020999e+00    3.537648e+00
  6.132128e+00    3.473304e+00
  6.243257e+00    3.470804e+00
  6.354386e+00    3.589006e+00
  6.465515e+00    3.493067e+00
  6.576644e+00    3.531493e+00
  6.687773e+00    3.470139e+00
  6.798902e+00    3.545164e+00
  6.910031e+00    3.431059e+00
  7.021160e+00    3.579214e+00
  7.132289e+00    3.441110e+00
  7.243418e+00    3.503211e+00
  7.354547e+00    3.505908e+00
  7.465676e+00    3.422356e+00
  7.576805e+00    3.417744e+00
  7.687934e+00    3.359472e+00
  7.799063e+00    3.375193e+00
  7.910192e+00    3.406915e+00
  8.021321e+00    3.408612e+00
  8.132450e+00    3.470685e+00
  8.243579e+00    3.405823e+00
  8.354708e+00    3.341401e+00
  8.465837e+00    3.373239e+00
  8.576966e+00    3.327611e+00
  8.688095e+00    3.316866e+00
  8.799224e+00    3.187693e+00
  8.910353e+00    3.244064e+00
  9.021482e+00    3.207158e+00
  9.132611e+00    3.189147e+00
  9.243740e+00    3.233874e+00
  9.354869e+00    3.166375e+00
  9.465998e+00    3.134276e+00
  9.577127e+00    3.199262e+00
  9.688256e+00    3.122502e+00
  9.799385e+00    3.096160e+00
  9.910514e+00    3.125743e+00
  1.002164e+01    3.140668e+00
  1.013277e+01    2.993208e+00
  1.024390e+01    3.008818e+00
  1.035503e+01    2.998829e+00
  1.046616e+01    3.003911e+00
  1.057729e+01    2.954549e+00
  1.068842e+01    2.971678e+00
  1.079955e+01    2.849589e+00
  1.091068e+01    2.894641e+00
  1.102180e+01    2.925219e+00
  1.113293e+01    2.858460e+00
  1.124406e+01    2.828039e+00
  1.135519e+01    2.775458e+00
  1.146632e+01    2.826706e+00
  1.157745e+01    2.717081e+00
  1.168858e+01    2.758896e+00
  1.179971e+01    2.736041e+00
  1.191084e+01    2.667659e+00
  1.202197e+01    2.692418e+00
  1.213309e+01    2.644460e+00
  1.224422e+01    2.644893e+00
  1.235535e+01    2.653886e+00
  1.246648e+01    2.694384e+00
  1.257761e+01    2.664288e+00
  1.268874e+01    2.785921e+00
  1.279987e+01    2.954808e+00
  1.291100e+01    3.646768e+00
  1.302213e+01    6.623943e+00
  1.313326e+01    1.463632e+01
  1.324438e+01    1.053959e+01
  1.335551e+01    4.373364e+00
  1.346664e+01    3.077334e+00
  1.357777e+01    2.741017e+00
  1.368890e+01    2.550527e+00
  1.380003e+01    2.468030e+00
  1.391116e+01    2.393042e+00
  1.402229e+01    2.314234e+00
  1.413342e+01    2.300013e+00
  1.424455e+01    2.273348e+00
  1.435568e+01    2.259047e+00
  1.446680e+01    2.248994e+00
  1.457793e+01    2.186138e+00
  1.468906e+01    2.197786e+00
  1.480019e+01    2.218147e+00
  1.491132e+01    2.252969e+00
  1.502245e+01    2.513211e+00
  1.513358e+01    3.710566e+00
  1.524471e+01    5.598822e+00
  1.535584e+01    3.703011e+00
  1.546697e+01    2.394536e+00
  1.557809e+01    2.082013e+00
  1.568922e+01    2.022804e+00
  1.580035e+01    1.904422e+00
  1.591148e+01    1.872524e+00
  1.602261e+01    1.860622e+00
  1.613374e+01    1.837874e+00
  1.624487e+01    1.797458e+00
  1.635600e+01    1.752166e+00
  1.646713e+01    1.748621e+00
  1.657826e+01    1.718214e+00
  1.668938e+01    1.691810e+00
  1.680051e+01    1.653310e+00
  1.691164e+01    1.664069e+00
  1.702277e+01    1.640061e+00
  1.713390e+01    1.640664e+00
  1.724503e+01    1.604998e+00
  1.735616e+01    1.609772e+00
  1.746729e+01    1.571992e+00
  1.757842e+01    1.539549e+00
  1.768955e+01    1.528246e+00
  1.780067e+01    1.488978e+00
  1.791180e+01    1.497235e+00
  1.802293e+01    1.507497e+00
  1.813406e+01    1.481708e+00
  1.824519e+01    1.493440e+00
  1.835632e+01    1.425011e+00
  1.846745e+01    1.402791e+00
  1.857858e+01    1.402346e+00
  1.868971e+01    1.386195e+00
  1.880084e+01    1.367535e+00
  1.891196e+01    1.390200e+00
  1.902309e+01    1.370118e+00
  1.913422e+01    1.369974e+00
  1.924535e+01    1.332445e+00
  1.935648e+01    1.342098e+00
  1.946761e+01    1.343962e+00
  1.957874e+01    1.325770e+00
  1.968987e+01    1.293627e+00
  1.980100e+01    1.294002e+00
  1.991213e+01    1.257129e+00
  2.002325e+01    1.285219e+00
  2.013438e+01    1.229940e+00
  2.024551e+01    1.234816e+00
  2.035664e+01    1.241586e+00
  2.046777e+01    1.244056e+00
  2.057890e+01    1.207785e+00
  2.069003e+01    1.237155e+00
  2.080116e+01    1.222703e+00
  2.091229e+01    1.215664e+00
  2.102342e+01    1.213037e+00
  2.113455e+01    1.198746e+00
  2.124567e+01    1.226891e+00
  2.135680e+01    1.263746e+00
  2.146793e+01    1.356787e+00
  2.157906e+01    1.591820e+00
  2.169019e+01    2.474666e+00
  2.180132e+01    5.782988e+00
  2.191245e+01    8.529185e+00
  2.202358e+01    3.576026e+00
  2.213471e+01    1.838554e+00
  2.224584e+01    1.357257e+00
  2.235696e+01    1.218691e+00
  2.246809e+01    1.150555e+00
  2.257922e+01    1.091149e+00
  2.269035e+01    1.044087e+00
  2.280148e+01    1.049639e+00
  2.291261e+01    1.034622e+00
  2.302374e+01    9.964152e-01
  2.313487e+01    1.015103e+00
  2.324600e+01    9.773872e-01
  2.335713e+01    9.714165e-01
  2.346825e+01    9.523392e-01
  2.357938e+01    9.567652e-01
  2.369051e+01    9.429772e-01
  2.380164e+01    9.209013e-01
  2.391277e+01    8.950872e-01
  2.402390e+01    8.798515e-01
  2.413503e+01    8.898525e-01
  2.424616e+01    8.801278e-01
  2.435729e+01    8.858690e-01
  2.446842e+01    8.899850e-01
  2.457954e+01    8.687947e-01
  2.469067e+01    8.777358e-01
  2.480180e+01    8.709990e-01
  2.491293e+01    8.707436e-01
  2.502406e+01    8.891647e-01
  2.513519e+01    9.149249e-01
  2.524632e+01    9.269529e-01
  2.535745e+01    9.712037e-01
  2.546858e+01    1.007128e+00
  2.557971e+01    1.126433e+00
  2.569083e+01    1.466362e+00
  2.580196e+01    2.778557e+00
  2.591309e+01    6.255157e+00
  2.602422e+01    5.186339e+00
  2.613535e+01    2.079060e+00
  2.624648e+01    1.317713e+00
  2.635761e+01    1.104738e+00
  2.646874e+01    1.021116e+00
  2.657987e+01    9.925231e-01
  2.669100e+01    9.665502e-01
  2.680212e+01    9.648335e-01
  2.691325e+01    9.918650e-01
  2.702438e+01    1.149775e+00
  2.713551e+01    1.703779e+00
  2.724664e+01    2.040079e+00
  2.735777e+01    1.263245e+00
  2.746890e+01    1.015457e+00
  2.758003e+01    9.163931e-01
  2.769116e+01    8.858129e-01
  2.780229e+01    8.661624e-01
  2.791342e+01    8.572976e-01
  2.802454e+01    8.548390e-01
  2.813567e+01    8.216479e-01
  2.824680e+01    8.473301e-01
  2.835793e+01    8.281542e-01
  2.846906e+01    8.079480e-01
  2.858019e+01    8.300385e-01
  2.869132e+01    8.265498e-01
  2.880245e+01    8.142724e-01
  2.891358e+01    8.025115e-01
  2.902471e+01    8.107605e-01
  2.913583e+01    8.044284e-01
  2.924696e+01    8.243867e-01
  2.935809e+01    7.996987e-01
  2.946922e+01    7.982307e-01
  2.958035e+01    7.924289e-01
  2.969148e+01    7.803560e-01
  2.980261e+01    7.764944e-01
  2.991374e+01    7.715734e-01
  3.002487e+01    8.133214e-01
  3.013600e+01    7.997139e-01
  3.024712e+01    7.944390e-01
  3.035825e+01    7.722065e-01
  3.046938e+01    7.817613e-01
  3.058051e+01    7.524844e-01
  3.069164e+01    7.854667e-01
  3.080277e+01    7.671125e-01
  3.091390e+01    7.462049e-01
  3.102503e+01    7.723413e-01
  3.113616e+01    7.618451e-01
  3.124729e+01    7.962091e-01
  3.135841e+01    8.046575e-01
  3.146954e+01    8.212382e-01
  3.158067e+01    8.509900e-01
  3.169180e+01    9.803986e-01
  3.180293e+01    1.431411e+00
  3.191406e+01    2.019337e+00
  3.202519e+01    1.259020e+00
  3.213632e+01    9.458116e-01
  3.224745e+01    8.204107e-01
  3.235858e+01    8.106365e-01
  3.246970e+01    7.815908e-01
  3.254908e+01    7.435569e-01