File: XRD/Reaction conditions/2024-07-27_003_Ru-CGO-ex_Reaction_dwell_000023_data_000099.dat
# == pyFAI calibration ==
# Distance Sample to Detector: 0.4 m
# PONI: 9.750e-02, 1.135e-01 m
# Rotations: -0.000175 0.000000 -0.000000 rad
#
# == Fit2d calibration ==
# Distance Sample-beamCenter: 400.000 mm
# Center: x=1514.000, y=1300.000 pix
# Tilt: 0.010 deg  TiltPlanRot: 0.010 deg
#
# Detector Detector	 Spline= None	 PixelSize= 7.500e-05, 7.500e-05 m
#    Detector has a mask: False
#    Detector has a dark current: False
#    detector has a flat field: False
#
# Wavelength: 6.888e-11 m
# Mask applied: user provided
# Dark current applied: False
# Flat field applied: False
# Polarization factor: 0.99
# Normalization factor: 1.0
# --> /home/myspot/data/2024_07_Rosario/Ru-CGO-ex/2024-07-27_003_Ru-CGO-ex_Reaction_dwell_000023_data_000099.dat
#       q_nm^-1             I
  2.003187e-02    0.000000e+00
  1.311609e-01    2.854557e-02
  2.422899e-01    0.000000e+00
  3.534189e-01    5.628168e-02
  4.645479e-01    3.382445e-02
  5.756770e-01    4.116304e-02
  6.868060e-01    3.801369e-02
  7.979350e-01    1.623588e-01
  9.090640e-01    6.407254e-01
  1.020193e+00    1.227528e+00
  1.131322e+00    1.675899e+00
  1.242451e+00    2.407481e+00
  1.353580e+00    2.872079e+00
  1.464709e+00    3.016910e+00
  1.575838e+00    3.190881e+00
  1.686967e+00    3.129942e+00
  1.798096e+00    3.147218e+00
  1.909225e+00    2.975327e+00
  2.020354e+00    3.097870e+00
  2.131483e+00    3.052834e+00
  2.242612e+00    3.180051e+00
  2.353741e+00    3.106097e+00
  2.464870e+00    3.239186e+00
  2.575999e+00    3.240614e+00
  2.687128e+00    3.284749e+00
  2.798257e+00    3.293432e+00
  2.909386e+00    3.319369e+00
  3.020515e+00    3.333739e+00
  3.131644e+00    3.348082e+00
  3.242773e+00    3.529711e+00
  3.353902e+00    3.331823e+00
  3.465031e+00    3.439486e+00
  3.576160e+00    3.457460e+00
  3.687289e+00    3.487559e+00
  3.798418e+00    3.459279e+00
  3.909547e+00    3.582488e+00
  4.020676e+00    3.648470e+00
  4.131806e+00    3.533667e+00
  4.242935e+00    3.598756e+00
  4.354064e+00    3.564426e+00
  4.465193e+00    3.621533e+00
  4.576322e+00    3.567040e+00
  4.687451e+00    3.686464e+00
  4.798580e+00    3.664460e+00
  4.909709e+00    3.551061e+00
  5.020838e+00    3.704408e+00
  5.131967e+00    3.682825e+00
  5.243096e+00    3.630761e+00
  5.354225e+00    3.709417e+00
  5.465354e+00    3.611002e+00
  5.576483e+00    3.568502e+00
  5.687612e+00    3.552032e+00
  5.798741e+00    3.585843e+00
  5.909870e+00    3.545219e+00
  6.020999e+00    3.598152e+00
  6.132128e+00    3.650894e+00
  6.243257e+00    3.575235e+00
  6.354386e+00    3.538927e+00
  6.465515e+00    3.544014e+00
  6.576644e+00    3.582717e+00
  6.687773e+00    3.609134e+00
  6.798902e+00    3.517715e+00
  6.910031e+00    3.559855e+00
  7.021160e+00    3.533330e+00
  7.132289e+00    3.466858e+00
  7.243418e+00    3.526260e+00
  7.354547e+00    3.511443e+00
  7.465676e+00    3.401359e+00
  7.576805e+00    3.472955e+00
  7.687934e+00    3.462547e+00
  7.799063e+00    3.402426e+00
  7.910192e+00    3.420116e+00
  8.021321e+00    3.471282e+00
  8.132450e+00    3.503111e+00
  8.243579e+00    3.545510e+00
  8.354708e+00    3.400298e+00
  8.465837e+00    3.357763e+00
  8.576966e+00    3.333436e+00
  8.688095e+00    3.372090e+00
  8.799224e+00    3.313923e+00
  8.910353e+00    3.319132e+00
  9.021482e+00    3.285066e+00
  9.132611e+00    3.282612e+00
  9.243740e+00    3.237107e+00
  9.354869e+00    3.198109e+00
  9.465998e+00    3.224056e+00
  9.577127e+00    3.205497e+00
  9.688256e+00    3.225236e+00
  9.799385e+00    3.182671e+00
  9.910514e+00    3.160913e+00
  1.002164e+01    3.094612e+00
  1.013277e+01    3.011982e+00
  1.024390e+01    3.094191e+00
  1.035503e+01    3.043139e+00
  1.046616e+01    3.039614e+00
  1.057729e+01    2.974837e+00
  1.068842e+01    2.985633e+00
  1.079955e+01    3.011123e+00
  1.091068e+01    2.904763e+00
  1.102180e+01    2.951473e+00
  1.113293e+01    2.898458e+00
  1.124406e+01    2.874831e+00
  1.135519e+01    2.816993e+00
  1.146632e+01    2.765744e+00
  1.157745e+01    2.793217e+00
  1.168858e+01    2.737329e+00
  1.179971e+01    2.759228e+00
  1.191084e+01    2.761021e+00
  1.202197e+01    2.736873e+00
  1.213309e+01    2.717529e+00
  1.224422e+01    2.695083e+00
  1.235535e+01    2.689624e+00
  1.246648e+01    2.704761e+00
  1.257761e+01    2.714874e+00
  1.268874e+01    2.846031e+00
  1.279987e+01    2.993813e+00
  1.291100e+01    3.664869e+00
  1.302213e+01    6.691843e+00
  1.313326e+01    1.475010e+01
  1.324438e+01    1.076773e+01
  1.335551e+01    4.457465e+00
  1.346664e+01    3.125853e+00
  1.357777e+01    2.767507e+00
  1.368890e+01    2.567720e+00
  1.380003e+01    2.507431e+00
  1.391116e+01    2.390024e+00
  1.402229e+01    2.364884e+00
  1.413342e+01    2.325712e+00
  1.424455e+01    2.296134e+00
  1.435568e+01    2.223854e+00
  1.446680e+01    2.250262e+00
  1.457793e+01    2.223533e+00
  1.468906e+01    2.201606e+00
  1.480019e+01    2.165869e+00
  1.491132e+01    2.253462e+00
  1.502245e+01    2.494651e+00
  1.513358e+01    3.810342e+00
  1.524471e+01    5.696962e+00
  1.535584e+01    3.808761e+00
  1.546697e+01    2.446738e+00
  1.557809e+01    2.154615e+00
  1.568922e+01    2.065217e+00
  1.580035e+01    1.940745e+00
  1.591148e+01    1.909512e+00
  1.602261e+01    1.879127e+00
  1.613374e+01    1.873510e+00
  1.624487e+01    1.802095e+00
  1.635600e+01    1.782678e+00
  1.646713e+01    1.755012e+00
  1.657826e+01    1.749663e+00
  1.668938e+01    1.716520e+00
  1.680051e+01    1.711652e+00
  1.691164e+01    1.694620e+00
  1.702277e+01    1.647720e+00
  1.713390e+01    1.651200e+00
  1.724503e+01    1.624643e+00
  1.735616e+01    1.620781e+00
  1.746729e+01    1.617808e+00
  1.757842e+01    1.616116e+00
  1.768955e+01    1.567914e+00
  1.780067e+01    1.516246e+00
  1.791180e+01    1.537538e+00
  1.802293e+01    1.515059e+00
  1.813406e+01    1.488407e+00
  1.824519e+01    1.449633e+00
  1.835632e+01    1.482080e+00
  1.846745e+01    1.453010e+00
  1.857858e+01    1.436691e+00
  1.868971e+01    1.431723e+00
  1.880084e+01    1.414817e+00
  1.891196e+01    1.385442e+00
  1.902309e+01    1.393719e+00
  1.913422e+01    1.379324e+00
  1.924535e+01    1.371865e+00
  1.935648e+01    1.332397e+00
  1.946761e+01    1.333300e+00
  1.957874e+01    1.325928e+00
  1.968987e+01    1.294601e+00
  1.980100e+01    1.314635e+00
  1.991213e+01    1.293229e+00
  2.002325e+01    1.305274e+00
  2.013438e+01    1.278834e+00
  2.024551e+01    1.242547e+00
  2.035664e+01    1.236878e+00
  2.046777e+01    1.235674e+00
  2.057890e+01    1.221065e+00
  2.069003e+01    1.241242e+00
  2.080116e+01    1.253088e+00
  2.091229e+01    1.222222e+00
  2.102342e+01    1.244090e+00
  2.113455e+01    1.233679e+00
  2.124567e+01    1.251766e+00
  2.135680e+01    1.307074e+00
  2.146793e+01    1.363546e+00
  2.157906e+01    1.586499e+00
  2.169019e+01    2.529455e+00
  2.180132e+01    5.811989e+00
  2.191245e+01    8.739798e+00
  2.202358e+01    3.671382e+00
  2.213471e+01    1.887817e+00
  2.224584e+01    1.436353e+00
  2.235696e+01    1.262848e+00
  2.246809e+01    1.152706e+00
  2.257922e+01    1.144416e+00
  2.269035e+01    1.087942e+00
  2.280148e+01    1.049677e+00
  2.291261e+01    1.050221e+00
  2.302374e+01    1.033135e+00
  2.313487e+01    1.010625e+00
  2.324600e+01    9.953862e-01
  2.335713e+01    9.899281e-01
  2.346825e+01    9.505866e-01
  2.357938e+01    9.645784e-01
  2.369051e+01    9.311179e-01
  2.380164e+01    9.132409e-01
  2.391277e+01    9.095867e-01
  2.402390e+01    8.962145e-01
  2.413503e+01    8.737084e-01
  2.424616e+01    8.958665e-01
  2.435729e+01    9.055265e-01
  2.446842e+01    8.969295e-01
  2.457954e+01    9.080938e-01
  2.469067e+01    8.825133e-01
  2.480180e+01    8.924130e-01
  2.491293e+01    8.983513e-01
  2.502406e+01    8.954439e-01
  2.513519e+01    9.010221e-01
  2.524632e+01    9.564697e-01
  2.535745e+01    9.679500e-01
  2.546858e+01    1.029995e+00
  2.557971e+01    1.172528e+00
  2.569083e+01    1.494830e+00
  2.580196e+01    2.780609e+00
  2.591309e+01    6.240924e+00
  2.602422e+01    5.349896e+00
  2.613535e+01    2.138744e+00
  2.624648e+01    1.326225e+00
  2.635761e+01    1.088528e+00
  2.646874e+01    1.034032e+00
  2.657987e+01    9.864327e-01
  2.669100e+01    9.866649e-01
  2.680212e+01    9.850644e-01
  2.691325e+01    1.021946e+00
  2.702438e+01    1.134884e+00
  2.713551e+01    1.729215e+00
  2.724664e+01    2.112150e+00
  2.735777e+01    1.292755e+00
  2.746890e+01    1.012860e+00
  2.758003e+01    9.299553e-01
  2.769116e+01    9.013430e-01
  2.780229e+01    8.795688e-01
  2.791342e+01    8.635603e-01
  2.802454e+01    8.826720e-01
  2.813567e+01    8.428957e-01
  2.824680e+01    8.452020e-01
  2.835793e+01    8.517392e-01
  2.846906e+01    8.582318e-01
  2.858019e+01    8.347830e-01
  2.869132e+01    8.580490e-01
  2.880245e+01    8.301920e-01
  2.891358e+01    8.333336e-01
  2.902471e+01    8.278236e-01
  2.913583e+01    8.204895e-01
  2.924696e+01    8.144433e-01
  2.935809e+01    7.739038e-01
  2.946922e+01    8.238202e-01
  2.958035e+01    8.061600e-01
  2.969148e+01    8.259198e-01
  2.980261e+01    8.047264e-01
  2.991374e+01    7.886234e-01
  3.002487e+01    8.201770e-01
  3.013600e+01    8.012148e-01
  3.024712e+01    8.210629e-01
  3.035825e+01    7.991201e-01
  3.046938e+01    8.017350e-01
  3.058051e+01    7.865826e-01
  3.069164e+01    7.685115e-01
  3.080277e+01    7.925233e-01
  3.091390e+01    7.945647e-01
  3.102503e+01    7.862709e-01
  3.113616e+01    7.729670e-01
  3.124729e+01    7.847711e-01
  3.135841e+01    8.030284e-01
  3.146954e+01    8.150970e-01
  3.158067e+01    8.416026e-01
  3.169180e+01    9.854317e-01
  3.180293e+01    1.446528e+00
  3.191406e+01    2.069619e+00
  3.202519e+01    1.338734e+00
  3.213632e+01    9.379394e-01
  3.224745e+01    8.322714e-01
  3.235858e+01    8.062063e-01
  3.246970e+01    7.895898e-01
  3.254908e+01    7.504428e-01