File: XRD/Reaction conditions/2024-07-27_003_Ru-CGO-ex_Reaction_dwell_000023_data_000164.dat
# == pyFAI calibration ==
# Distance Sample to Detector: 0.4 m
# PONI: 9.750e-02, 1.135e-01 m
# Rotations: -0.000175 0.000000 -0.000000 rad
#
# == Fit2d calibration ==
# Distance Sample-beamCenter: 400.000 mm
# Center: x=1514.000, y=1300.000 pix
# Tilt: 0.010 deg  TiltPlanRot: 0.010 deg
#
# Detector Detector	 Spline= None	 PixelSize= 7.500e-05, 7.500e-05 m
#    Detector has a mask: False
#    Detector has a dark current: False
#    detector has a flat field: False
#
# Wavelength: 6.888e-11 m
# Mask applied: user provided
# Dark current applied: False
# Flat field applied: False
# Polarization factor: 0.99
# Normalization factor: 1.0
# --> /home/myspot/data/2024_07_Rosario/Ru-CGO-ex/2024-07-27_003_Ru-CGO-ex_Reaction_dwell_000023_data_000164.dat
#       q_nm^-1             I
  2.003187e-02    0.000000e+00
  1.311609e-01    6.316211e-03
  2.422899e-01    1.602768e-02
  3.534189e-01    3.781333e-02
  4.645479e-01    4.754588e-02
  5.756770e-01    5.955683e-02
  6.868060e-01    4.187425e-02
  7.979350e-01    1.463679e-01
  9.090640e-01    6.700689e-01
  1.020193e+00    1.358245e+00
  1.131322e+00    1.587808e+00
  1.242451e+00    2.231816e+00
  1.353580e+00    2.637742e+00
  1.464709e+00    3.023803e+00
  1.575838e+00    3.121938e+00
  1.686967e+00    3.083503e+00
  1.798096e+00    3.126884e+00
  1.909225e+00    3.040065e+00
  2.020354e+00    3.044945e+00
  2.131483e+00    3.040513e+00
  2.242612e+00    3.105572e+00
  2.353741e+00    3.179934e+00
  2.464870e+00    3.265957e+00
  2.575999e+00    3.216848e+00
  2.687128e+00    3.212434e+00
  2.798257e+00    3.192205e+00
  2.909386e+00    3.205830e+00
  3.020515e+00    3.355064e+00
  3.131644e+00    3.416902e+00
  3.242773e+00    3.236130e+00
  3.353902e+00    3.323430e+00
  3.465031e+00    3.475498e+00
  3.576160e+00    3.367862e+00
  3.687289e+00    3.439281e+00
  3.798418e+00    3.403505e+00
  3.909547e+00    3.562060e+00
  4.020676e+00    3.396529e+00
  4.131806e+00    3.503707e+00
  4.242935e+00    3.615184e+00
  4.354064e+00    3.512080e+00
  4.465193e+00    3.605727e+00
  4.576322e+00    3.587087e+00
  4.687451e+00    3.514259e+00
  4.798580e+00    3.603000e+00
  4.909709e+00    3.637623e+00
  5.020838e+00    3.594670e+00
  5.131967e+00    3.688513e+00
  5.243096e+00    3.649778e+00
  5.354225e+00    3.549619e+00
  5.465354e+00    3.576711e+00
  5.576483e+00    3.629108e+00
  5.687612e+00    3.501951e+00
  5.798741e+00    3.559093e+00
  5.909870e+00    3.465727e+00
  6.020999e+00    3.512681e+00
  6.132128e+00    3.527182e+00
  6.243257e+00    3.559988e+00
  6.354386e+00    3.553378e+00
  6.465515e+00    3.463685e+00
  6.576644e+00    3.462863e+00
  6.687773e+00    3.523276e+00
  6.798902e+00    3.603917e+00
  6.910031e+00    3.457937e+00
  7.021160e+00    3.510161e+00
  7.132289e+00    3.533334e+00
  7.243418e+00    3.473070e+00
  7.354547e+00    3.473610e+00
  7.465676e+00    3.448425e+00
  7.576805e+00    3.492736e+00
  7.687934e+00    3.377422e+00
  7.799063e+00    3.418288e+00
  7.910192e+00    3.380536e+00
  8.021321e+00    3.431331e+00
  8.132450e+00    3.442248e+00
  8.243579e+00    3.420876e+00
  8.354708e+00    3.409651e+00
  8.465837e+00    3.286731e+00
  8.576966e+00    3.346937e+00
  8.688095e+00    3.332557e+00
  8.799224e+00    3.322792e+00
  8.910353e+00    3.332007e+00
  9.021482e+00    3.229820e+00
  9.132611e+00    3.214893e+00
  9.243740e+00    3.190124e+00
  9.354869e+00    3.246779e+00
  9.465998e+00    3.211655e+00
  9.577127e+00    3.143830e+00
  9.688256e+00    3.099983e+00
  9.799385e+00    3.130286e+00
  9.910514e+00    3.191102e+00
  1.002164e+01    3.044299e+00
  1.013277e+01    3.103500e+00
  1.024390e+01    3.089725e+00
  1.035503e+01    3.042753e+00
  1.046616e+01    2.992911e+00
  1.057729e+01    3.028839e+00
  1.068842e+01    2.961794e+00
  1.079955e+01    2.921178e+00
  1.091068e+01    2.879974e+00
  1.102180e+01    2.855682e+00
  1.113293e+01    2.817378e+00
  1.124406e+01    2.802945e+00
  1.135519e+01    2.769663e+00
  1.146632e+01    2.825033e+00
  1.157745e+01    2.749114e+00
  1.168858e+01    2.698151e+00
  1.179971e+01    2.705868e+00
  1.191084e+01    2.730858e+00
  1.202197e+01    2.658355e+00
  1.213309e+01    2.668154e+00
  1.224422e+01    2.656463e+00
  1.235535e+01    2.648237e+00
  1.246648e+01    2.666748e+00
  1.257761e+01    2.741761e+00
  1.268874e+01    2.754915e+00
  1.279987e+01    2.973517e+00
  1.291100e+01    3.610946e+00
  1.302213e+01    6.580513e+00
  1.313326e+01    1.453906e+01
  1.324438e+01    1.056485e+01
  1.335551e+01    4.397219e+00
  1.346664e+01    3.124428e+00
  1.357777e+01    2.710647e+00
  1.368890e+01    2.553705e+00
  1.380003e+01    2.404693e+00
  1.391116e+01    2.375261e+00
  1.402229e+01    2.376705e+00
  1.413342e+01    2.294914e+00
  1.424455e+01    2.316856e+00
  1.435568e+01    2.254224e+00
  1.446680e+01    2.235790e+00
  1.457793e+01    2.190530e+00
  1.468906e+01    2.198282e+00
  1.480019e+01    2.173850e+00
  1.491132e+01    2.221772e+00
  1.502245e+01    2.492017e+00
  1.513358e+01    3.676556e+00
  1.524471e+01    5.682995e+00
  1.535584e+01    3.788472e+00
  1.546697e+01    2.415387e+00
  1.557809e+01    2.117123e+00
  1.568922e+01    1.975939e+00
  1.580035e+01    1.959226e+00
  1.591148e+01    1.872022e+00
  1.602261e+01    1.839902e+00
  1.613374e+01    1.848808e+00
  1.624487e+01    1.795176e+00
  1.635600e+01    1.792264e+00
  1.646713e+01    1.749614e+00
  1.657826e+01    1.727884e+00
  1.668938e+01    1.673899e+00
  1.680051e+01    1.688979e+00
  1.691164e+01    1.689284e+00
  1.702277e+01    1.605811e+00
  1.713390e+01    1.608968e+00
  1.724503e+01    1.600513e+00
  1.735616e+01    1.607110e+00
  1.746729e+01    1.564507e+00
  1.757842e+01    1.572759e+00
  1.768955e+01    1.537632e+00
  1.780067e+01    1.518052e+00
  1.791180e+01    1.505333e+00
  1.802293e+01    1.491291e+00
  1.813406e+01    1.476688e+00
  1.824519e+01    1.454874e+00
  1.835632e+01    1.457679e+00
  1.846745e+01    1.446367e+00
  1.857858e+01    1.418752e+00
  1.868971e+01    1.417188e+00
  1.880084e+01    1.410868e+00
  1.891196e+01    1.364836e+00
  1.902309e+01    1.359676e+00
  1.913422e+01    1.364766e+00
  1.924535e+01    1.352533e+00
  1.935648e+01    1.339998e+00
  1.946761e+01    1.333207e+00
  1.957874e+01    1.308366e+00
  1.968987e+01    1.303287e+00
  1.980100e+01    1.301414e+00
  1.991213e+01    1.285992e+00
  2.002325e+01    1.279165e+00
  2.013438e+01    1.247122e+00
  2.024551e+01    1.246542e+00
  2.035664e+01    1.264538e+00
  2.046777e+01    1.206211e+00
  2.057890e+01    1.233222e+00
  2.069003e+01    1.200244e+00
  2.080116e+01    1.220629e+00
  2.091229e+01    1.252388e+00
  2.102342e+01    1.213359e+00
  2.113455e+01    1.236590e+00
  2.124567e+01    1.223624e+00
  2.135680e+01    1.267967e+00
  2.146793e+01    1.359902e+00
  2.157906e+01    1.589706e+00
  2.169019e+01    2.481187e+00
  2.180132e+01    5.756356e+00
  2.191245e+01    8.705442e+00
  2.202358e+01    3.568332e+00
  2.213471e+01    1.857468e+00
  2.224584e+01    1.402560e+00
  2.235696e+01    1.235196e+00
  2.246809e+01    1.158658e+00
  2.257922e+01    1.095201e+00
  2.269035e+01    1.081690e+00
  2.280148e+01    1.015061e+00
  2.291261e+01    1.054947e+00
  2.302374e+01    1.000527e+00
  2.313487e+01    9.989741e-01
  2.324600e+01    9.946438e-01
  2.335713e+01    9.844587e-01
  2.346825e+01    9.796840e-01
  2.357938e+01    9.497445e-01
  2.369051e+01    9.339606e-01
  2.380164e+01    9.239911e-01
  2.391277e+01    9.098101e-01
  2.402390e+01    8.754175e-01
  2.413503e+01    8.799230e-01
  2.424616e+01    8.720722e-01
  2.435729e+01    8.910120e-01
  2.446842e+01    8.885061e-01
  2.457954e+01    8.903329e-01
  2.469067e+01    8.749893e-01
  2.480180e+01    8.836352e-01
  2.491293e+01    9.036241e-01
  2.502406e+01    8.826920e-01
  2.513519e+01    9.004562e-01
  2.524632e+01    9.210179e-01
  2.535745e+01    9.802215e-01
  2.546858e+01    1.039238e+00
  2.557971e+01    1.126252e+00
  2.569083e+01    1.505211e+00
  2.580196e+01    2.718632e+00
  2.591309e+01    6.241645e+00
  2.602422e+01    5.246737e+00
  2.613535e+01    2.134115e+00
  2.624648e+01    1.352826e+00
  2.635761e+01    1.110611e+00
  2.646874e+01    9.948327e-01
  2.657987e+01    9.725553e-01
  2.669100e+01    9.712955e-01
  2.680212e+01    9.605531e-01
  2.691325e+01    9.644392e-01
  2.702438e+01    1.166050e+00
  2.713551e+01    1.699319e+00
  2.724664e+01    2.059400e+00
  2.735777e+01    1.285312e+00
  2.746890e+01    1.017272e+00
  2.758003e+01    9.307731e-01
  2.769116e+01    8.932647e-01
  2.780229e+01    8.845185e-01
  2.791342e+01    8.531961e-01
  2.802454e+01    8.607784e-01
  2.813567e+01    8.540416e-01
  2.824680e+01    8.480784e-01
  2.835793e+01    8.604553e-01
  2.846906e+01    8.185190e-01
  2.858019e+01    8.250327e-01
  2.869132e+01    8.267556e-01
  2.880245e+01    8.232203e-01
  2.891358e+01    8.104570e-01
  2.902471e+01    8.163298e-01
  2.913583e+01    7.922602e-01
  2.924696e+01    8.126917e-01
  2.935809e+01    7.693985e-01
  2.946922e+01    7.911227e-01
  2.958035e+01    7.833785e-01
  2.969148e+01    7.775471e-01
  2.980261e+01    8.066031e-01
  2.991374e+01    7.809050e-01
  3.002487e+01    8.227196e-01
  3.013600e+01    7.890658e-01
  3.024712e+01    7.632236e-01
  3.035825e+01    7.828635e-01
  3.046938e+01    7.873875e-01
  3.058051e+01    7.645940e-01
  3.069164e+01    7.784562e-01
  3.080277e+01    7.810746e-01
  3.091390e+01    7.871525e-01
  3.102503e+01    7.684048e-01
  3.113616e+01    7.806965e-01
  3.124729e+01    7.818066e-01
  3.135841e+01    7.813647e-01
  3.146954e+01    8.218982e-01
  3.158067e+01    8.532600e-01
  3.169180e+01    9.706057e-01
  3.180293e+01    1.446181e+00
  3.191406e+01    2.069334e+00
  3.202519e+01    1.328296e+00
  3.213632e+01    9.231936e-01
  3.224745e+01    8.101566e-01
  3.235858e+01    7.932534e-01
  3.246970e+01    7.600498e-01
  3.254908e+01    7.679073e-01