File: XRD/Reaction conditions/2024-07-27_003_Ru-CGO-ex_Reaction_dwell_000023_data_000131.dat
# == pyFAI calibration ==
# Distance Sample to Detector: 0.4 m
# PONI: 9.750e-02, 1.135e-01 m
# Rotations: -0.000175 0.000000 -0.000000 rad
#
# == Fit2d calibration ==
# Distance Sample-beamCenter: 400.000 mm
# Center: x=1514.000, y=1300.000 pix
# Tilt: 0.010 deg  TiltPlanRot: 0.010 deg
#
# Detector Detector	 Spline= None	 PixelSize= 7.500e-05, 7.500e-05 m
#    Detector has a mask: False
#    Detector has a dark current: False
#    detector has a flat field: False
#
# Wavelength: 6.888e-11 m
# Mask applied: user provided
# Dark current applied: False
# Flat field applied: False
# Polarization factor: 0.99
# Normalization factor: 1.0
# --> /home/myspot/data/2024_07_Rosario/Ru-CGO-ex/2024-07-27_003_Ru-CGO-ex_Reaction_dwell_000023_data_000131.dat
#       q_nm^-1             I
  2.003187e-02    7.712225e-02
  1.311609e-01    6.520711e-03
  2.422899e-01    2.372841e-02
  3.534189e-01    2.824617e-02
  4.645479e-01    3.654912e-02
  5.756770e-01    3.895876e-02
  6.868060e-01    4.733044e-02
  7.979350e-01    1.818710e-01
  9.090640e-01    5.880373e-01
  1.020193e+00    1.206144e+00
  1.131322e+00    1.648797e+00
  1.242451e+00    2.362943e+00
  1.353580e+00    2.706792e+00
  1.464709e+00    3.089217e+00
  1.575838e+00    3.163714e+00
  1.686967e+00    3.117276e+00
  1.798096e+00    2.989244e+00
  1.909225e+00    3.099529e+00
  2.020354e+00    3.194767e+00
  2.131483e+00    3.183708e+00
  2.242612e+00    3.126128e+00
  2.353741e+00    3.267531e+00
  2.464870e+00    3.249147e+00
  2.575999e+00    3.199718e+00
  2.687128e+00    3.247221e+00
  2.798257e+00    3.351013e+00
  2.909386e+00    3.259789e+00
  3.020515e+00    3.283378e+00
  3.131644e+00    3.425438e+00
  3.242773e+00    3.441458e+00
  3.353902e+00    3.500602e+00
  3.465031e+00    3.521484e+00
  3.576160e+00    3.459162e+00
  3.687289e+00    3.419367e+00
  3.798418e+00    3.486727e+00
  3.909547e+00    3.618811e+00
  4.020676e+00    3.504433e+00
  4.131806e+00    3.571356e+00
  4.242935e+00    3.582670e+00
  4.354064e+00    3.560878e+00
  4.465193e+00    3.569102e+00
  4.576322e+00    3.571942e+00
  4.687451e+00    3.696346e+00
  4.798580e+00    3.682886e+00
  4.909709e+00    3.656577e+00
  5.020838e+00    3.617273e+00
  5.131967e+00    3.646707e+00
  5.243096e+00    3.659284e+00
  5.354225e+00    3.701080e+00
  5.465354e+00    3.589067e+00
  5.576483e+00    3.573174e+00
  5.687612e+00    3.659382e+00
  5.798741e+00    3.485051e+00
  5.909870e+00    3.525743e+00
  6.020999e+00    3.481700e+00
  6.132128e+00    3.593797e+00
  6.243257e+00    3.640371e+00
  6.354386e+00    3.661666e+00
  6.465515e+00    3.608085e+00
  6.576644e+00    3.578909e+00
  6.687773e+00    3.520744e+00
  6.798902e+00    3.604842e+00
  6.910031e+00    3.539062e+00
  7.021160e+00    3.472984e+00
  7.132289e+00    3.547728e+00
  7.243418e+00    3.483421e+00
  7.354547e+00    3.520958e+00
  7.465676e+00    3.493738e+00
  7.576805e+00    3.498797e+00
  7.687934e+00    3.449651e+00
  7.799063e+00    3.496170e+00
  7.910192e+00    3.484059e+00
  8.021321e+00    3.346817e+00
  8.132450e+00    3.509371e+00
  8.243579e+00    3.500449e+00
  8.354708e+00    3.374973e+00
  8.465837e+00    3.350093e+00
  8.576966e+00    3.348855e+00
  8.688095e+00    3.358908e+00
  8.799224e+00    3.385760e+00
  8.910353e+00    3.311060e+00
  9.021482e+00    3.373682e+00
  9.132611e+00    3.297435e+00
  9.243740e+00    3.233443e+00
  9.354869e+00    3.251233e+00
  9.465998e+00    3.207531e+00
  9.577127e+00    3.249911e+00
  9.688256e+00    3.165147e+00
  9.799385e+00    3.273046e+00
  9.910514e+00    3.106916e+00
  1.002164e+01    3.082031e+00
  1.013277e+01    3.088424e+00
  1.024390e+01    3.095381e+00
  1.035503e+01    3.069819e+00
  1.046616e+01    3.011747e+00
  1.057729e+01    2.979725e+00
  1.068842e+01    2.916250e+00
  1.079955e+01    2.967688e+00
  1.091068e+01    2.926439e+00
  1.102180e+01    2.931350e+00
  1.113293e+01    2.862548e+00
  1.124406e+01    2.820306e+00
  1.135519e+01    2.858565e+00
  1.146632e+01    2.802775e+00
  1.157745e+01    2.778574e+00
  1.168858e+01    2.808676e+00
  1.179971e+01    2.738298e+00
  1.191084e+01    2.676516e+00
  1.202197e+01    2.785645e+00
  1.213309e+01    2.692430e+00
  1.224422e+01    2.647057e+00
  1.235535e+01    2.675248e+00
  1.246648e+01    2.701475e+00
  1.257761e+01    2.751857e+00
  1.268874e+01    2.783685e+00
  1.279987e+01    3.045794e+00
  1.291100e+01    3.670560e+00
  1.302213e+01    6.672614e+00
  1.313326e+01    1.470400e+01
  1.324438e+01    1.069897e+01
  1.335551e+01    4.439363e+00
  1.346664e+01    3.111409e+00
  1.357777e+01    2.729179e+00
  1.368890e+01    2.560839e+00
  1.380003e+01    2.424162e+00
  1.391116e+01    2.408803e+00
  1.402229e+01    2.357020e+00
  1.413342e+01    2.352582e+00
  1.424455e+01    2.296730e+00
  1.435568e+01    2.258587e+00
  1.446680e+01    2.208968e+00
  1.457793e+01    2.247566e+00
  1.468906e+01    2.255194e+00
  1.480019e+01    2.249935e+00
  1.491132e+01    2.247748e+00
  1.502245e+01    2.495715e+00
  1.513358e+01    3.783611e+00
  1.524471e+01    5.643438e+00
  1.535584e+01    3.731510e+00
  1.546697e+01    2.449197e+00
  1.557809e+01    2.133006e+00
  1.568922e+01    2.021465e+00
  1.580035e+01    1.944566e+00
  1.591148e+01    1.906861e+00
  1.602261e+01    1.881349e+00
  1.613374e+01    1.838638e+00
  1.624487e+01    1.839097e+00
  1.635600e+01    1.853251e+00
  1.646713e+01    1.739012e+00
  1.657826e+01    1.768249e+00
  1.668938e+01    1.745887e+00
  1.680051e+01    1.707226e+00
  1.691164e+01    1.686437e+00
  1.702277e+01    1.677387e+00
  1.713390e+01    1.653426e+00
  1.724503e+01    1.620776e+00
  1.735616e+01    1.620466e+00
  1.746729e+01    1.588562e+00
  1.757842e+01    1.564549e+00
  1.768955e+01    1.565183e+00
  1.780067e+01    1.563802e+00
  1.791180e+01    1.493892e+00
  1.802293e+01    1.490736e+00
  1.813406e+01    1.496473e+00
  1.824519e+01    1.486603e+00
  1.835632e+01    1.480169e+00
  1.846745e+01    1.462645e+00
  1.857858e+01    1.441650e+00
  1.868971e+01    1.460418e+00
  1.880084e+01    1.420875e+00
  1.891196e+01    1.397176e+00
  1.902309e+01    1.388268e+00
  1.913422e+01    1.349942e+00
  1.924535e+01    1.347679e+00
  1.935648e+01    1.360900e+00
  1.946761e+01    1.347998e+00
  1.957874e+01    1.336338e+00
  1.968987e+01    1.309668e+00
  1.980100e+01    1.289568e+00
  1.991213e+01    1.287816e+00
  2.002325e+01    1.281139e+00
  2.013438e+01    1.260677e+00
  2.024551e+01    1.254927e+00
  2.035664e+01    1.251359e+00
  2.046777e+01    1.236699e+00
  2.057890e+01    1.267575e+00
  2.069003e+01    1.259863e+00
  2.080116e+01    1.242203e+00
  2.091229e+01    1.214602e+00
  2.102342e+01    1.205061e+00
  2.113455e+01    1.229413e+00
  2.124567e+01    1.241738e+00
  2.135680e+01    1.308430e+00
  2.146793e+01    1.365149e+00
  2.157906e+01    1.596628e+00
  2.169019e+01    2.516442e+00
  2.180132e+01    5.748914e+00
  2.191245e+01    8.646836e+00
  2.202358e+01    3.712263e+00
  2.213471e+01    1.851695e+00
  2.224584e+01    1.423967e+00
  2.235696e+01    1.284645e+00
  2.246809e+01    1.173917e+00
  2.257922e+01    1.121274e+00
  2.269035e+01    1.080302e+00
  2.280148e+01    1.060370e+00
  2.291261e+01    1.037620e+00
  2.302374e+01    1.030731e+00
  2.313487e+01    1.005297e+00
  2.324600e+01    9.941248e-01
  2.335713e+01    9.795228e-01
  2.346825e+01    9.850448e-01
  2.357938e+01    9.551604e-01
  2.369051e+01    9.323692e-01
  2.380164e+01    9.148499e-01
  2.391277e+01    9.004871e-01
  2.402390e+01    9.043306e-01
  2.413503e+01    8.883319e-01
  2.424616e+01    8.987321e-01
  2.435729e+01    8.855495e-01
  2.446842e+01    9.051420e-01
  2.457954e+01    8.980620e-01
  2.469067e+01    8.922255e-01
  2.480180e+01    8.998103e-01
  2.491293e+01    8.985627e-01
  2.502406e+01    9.110561e-01
  2.513519e+01    9.108999e-01
  2.524632e+01    9.169530e-01
  2.535745e+01    9.721431e-01
  2.546858e+01    1.020229e+00
  2.557971e+01    1.163516e+00
  2.569083e+01    1.493667e+00
  2.580196e+01    2.767248e+00
  2.591309e+01    6.323444e+00
  2.602422e+01    5.326043e+00
  2.613535e+01    2.126938e+00
  2.624648e+01    1.334622e+00
  2.635761e+01    1.124665e+00
  2.646874e+01    1.038183e+00
  2.657987e+01    1.006225e+00
  2.669100e+01    9.809641e-01
  2.680212e+01    9.847531e-01
  2.691325e+01    1.011296e+00
  2.702438e+01    1.163999e+00
  2.713551e+01    1.724464e+00
  2.724664e+01    2.089215e+00
  2.735777e+01    1.333684e+00
  2.746890e+01    1.036639e+00
  2.758003e+01    9.282543e-01
  2.769116e+01    8.766404e-01
  2.780229e+01    9.141245e-01
  2.791342e+01    8.788460e-01
  2.802454e+01    8.971382e-01
  2.813567e+01    8.554822e-01
  2.824680e+01    8.677859e-01
  2.835793e+01    8.306955e-01
  2.846906e+01    8.256082e-01
  2.858019e+01    8.340240e-01
  2.869132e+01    8.229399e-01
  2.880245e+01    8.084927e-01
  2.891358e+01    8.302313e-01
  2.902471e+01    8.076304e-01
  2.913583e+01    8.214009e-01
  2.924696e+01    8.025055e-01
  2.935809e+01    8.142423e-01
  2.946922e+01    8.077634e-01
  2.958035e+01    8.009849e-01
  2.969148e+01    7.851470e-01
  2.980261e+01    7.810376e-01
  2.991374e+01    8.020589e-01
  3.002487e+01    8.318723e-01
  3.013600e+01    7.925555e-01
  3.024712e+01    8.001553e-01
  3.035825e+01    7.709278e-01
  3.046938e+01    7.877823e-01
  3.058051e+01    7.935790e-01
  3.069164e+01    7.785916e-01
  3.080277e+01    7.974377e-01
  3.091390e+01    7.803451e-01
  3.102503e+01    7.887978e-01
  3.113616e+01    7.785829e-01
  3.124729e+01    7.719101e-01
  3.135841e+01    8.169432e-01
  3.146954e+01    8.508847e-01
  3.158067e+01    8.421384e-01
  3.169180e+01    9.755084e-01
  3.180293e+01    1.440364e+00
  3.191406e+01    2.083871e+00
  3.202519e+01    1.334647e+00
  3.213632e+01    9.325280e-01
  3.224745e+01    8.199415e-01
  3.235858e+01    8.218076e-01
  3.246970e+01    7.677875e-01
  3.254908e+01    7.686324e-01