File: XRD/Reaction conditions/2024-07-27_003_Ru-CGO-ex_Reaction_dwell_000023_data_000185.dat
# == pyFAI calibration ==
# Distance Sample to Detector: 0.4 m
# PONI: 9.750e-02, 1.135e-01 m
# Rotations: -0.000175 0.000000 -0.000000 rad
#
# == Fit2d calibration ==
# Distance Sample-beamCenter: 400.000 mm
# Center: x=1514.000, y=1300.000 pix
# Tilt: 0.010 deg  TiltPlanRot: 0.010 deg
#
# Detector Detector	 Spline= None	 PixelSize= 7.500e-05, 7.500e-05 m
#    Detector has a mask: False
#    Detector has a dark current: False
#    detector has a flat field: False
#
# Wavelength: 6.888e-11 m
# Mask applied: user provided
# Dark current applied: False
# Flat field applied: False
# Polarization factor: 0.99
# Normalization factor: 1.0
# --> /home/myspot/data/2024_07_Rosario/Ru-CGO-ex/2024-07-27_003_Ru-CGO-ex_Reaction_dwell_000023_data_000185.dat
#       q_nm^-1             I
  2.003187e-02    0.000000e+00
  1.311609e-01    6.933002e-02
  2.422899e-01    4.552563e-02
  3.534189e-01    6.207243e-02
  4.645479e-01    4.353342e-02
  5.756770e-01    6.744883e-02
  6.868060e-01    4.696998e-02
  7.979350e-01    1.419729e-01
  9.090640e-01    6.172348e-01
  1.020193e+00    1.284107e+00
  1.131322e+00    1.665680e+00
  1.242451e+00    2.325615e+00
  1.353580e+00    2.723150e+00
  1.464709e+00    2.980498e+00
  1.575838e+00    3.245091e+00
  1.686967e+00    3.130072e+00
  1.798096e+00    3.078655e+00
  1.909225e+00    3.152093e+00
  2.020354e+00    2.887814e+00
  2.131483e+00    3.019040e+00
  2.242612e+00    3.034253e+00
  2.353741e+00    3.082255e+00
  2.464870e+00    3.081164e+00
  2.575999e+00    3.293590e+00
  2.687128e+00    3.097828e+00
  2.798257e+00    3.172780e+00
  2.909386e+00    3.232296e+00
  3.020515e+00    3.389113e+00
  3.131644e+00    3.250792e+00
  3.242773e+00    3.397685e+00
  3.353902e+00    3.282020e+00
  3.465031e+00    3.404603e+00
  3.576160e+00    3.405699e+00
  3.687289e+00    3.470775e+00
  3.798418e+00    3.414143e+00
  3.909547e+00    3.414322e+00
  4.020676e+00    3.413269e+00
  4.131806e+00    3.508074e+00
  4.242935e+00    3.537497e+00
  4.354064e+00    3.426564e+00
  4.465193e+00    3.483479e+00
  4.576322e+00    3.548549e+00
  4.687451e+00    3.599623e+00
  4.798580e+00    3.464877e+00
  4.909709e+00    3.621697e+00
  5.020838e+00    3.608882e+00
  5.131967e+00    3.589535e+00
  5.243096e+00    3.530810e+00
  5.354225e+00    3.581295e+00
  5.465354e+00    3.518045e+00
  5.576483e+00    3.524686e+00
  5.687612e+00    3.478284e+00
  5.798741e+00    3.507402e+00
  5.909870e+00    3.562955e+00
  6.020999e+00    3.524476e+00
  6.132128e+00    3.552977e+00
  6.243257e+00    3.535119e+00
  6.354386e+00    3.569373e+00
  6.465515e+00    3.472558e+00
  6.576644e+00    3.496789e+00
  6.687773e+00    3.448668e+00
  6.798902e+00    3.476201e+00
  6.910031e+00    3.486176e+00
  7.021160e+00    3.464833e+00
  7.132289e+00    3.503480e+00
  7.243418e+00    3.407748e+00
  7.354547e+00    3.443407e+00
  7.465676e+00    3.416252e+00
  7.576805e+00    3.409625e+00
  7.687934e+00    3.336715e+00
  7.799063e+00    3.386335e+00
  7.910192e+00    3.375863e+00
  8.021321e+00    3.394386e+00
  8.132450e+00    3.371850e+00
  8.243579e+00    3.437912e+00
  8.354708e+00    3.314276e+00
  8.465837e+00    3.394045e+00
  8.576966e+00    3.230835e+00
  8.688095e+00    3.346462e+00
  8.799224e+00    3.256501e+00
  8.910353e+00    3.257165e+00
  9.021482e+00    3.292456e+00
  9.132611e+00    3.263085e+00
  9.243740e+00    3.252959e+00
  9.354869e+00    3.169457e+00
  9.465998e+00    3.151077e+00
  9.577127e+00    3.161342e+00
  9.688256e+00    3.098635e+00
  9.799385e+00    3.169184e+00
  9.910514e+00    3.116221e+00
  1.002164e+01    3.069171e+00
  1.013277e+01    3.076743e+00
  1.024390e+01    3.068994e+00
  1.035503e+01    3.067832e+00
  1.046616e+01    2.934609e+00
  1.057729e+01    2.975393e+00
  1.068842e+01    2.985956e+00
  1.079955e+01    2.889616e+00
  1.091068e+01    2.883048e+00
  1.102180e+01    2.843108e+00
  1.113293e+01    2.848272e+00
  1.124406e+01    2.794459e+00
  1.135519e+01    2.768387e+00
  1.146632e+01    2.785436e+00
  1.157745e+01    2.761110e+00
  1.168858e+01    2.727037e+00
  1.179971e+01    2.745444e+00
  1.191084e+01    2.675817e+00
  1.202197e+01    2.682653e+00
  1.213309e+01    2.718157e+00
  1.224422e+01    2.622560e+00
  1.235535e+01    2.650835e+00
  1.246648e+01    2.640121e+00
  1.257761e+01    2.702327e+00
  1.268874e+01    2.836178e+00
  1.279987e+01    2.977695e+00
  1.291100e+01    3.576993e+00
  1.302213e+01    6.646750e+00
  1.313326e+01    1.473239e+01
  1.324438e+01    1.050628e+01
  1.335551e+01    4.363401e+00
  1.346664e+01    3.089801e+00
  1.357777e+01    2.713838e+00
  1.368890e+01    2.522458e+00
  1.380003e+01    2.417673e+00
  1.391116e+01    2.396638e+00
  1.402229e+01    2.304927e+00
  1.413342e+01    2.257955e+00
  1.424455e+01    2.217984e+00
  1.435568e+01    2.239984e+00
  1.446680e+01    2.176376e+00
  1.457793e+01    2.170477e+00
  1.468906e+01    2.133917e+00
  1.480019e+01    2.155573e+00
  1.491132e+01    2.207376e+00
  1.502245e+01    2.449819e+00
  1.513358e+01    3.694430e+00
  1.524471e+01    5.649522e+00
  1.535584e+01    3.699499e+00
  1.546697e+01    2.369098e+00
  1.557809e+01    2.078861e+00
  1.568922e+01    2.000037e+00
  1.580035e+01    1.921672e+00
  1.591148e+01    1.866060e+00
  1.602261e+01    1.811708e+00
  1.613374e+01    1.803975e+00
  1.624487e+01    1.745835e+00
  1.635600e+01    1.768326e+00
  1.646713e+01    1.759613e+00
  1.657826e+01    1.716749e+00
  1.668938e+01    1.679038e+00
  1.680051e+01    1.682905e+00
  1.691164e+01    1.679867e+00
  1.702277e+01    1.659397e+00
  1.713390e+01    1.636744e+00
  1.724503e+01    1.575694e+00
  1.735616e+01    1.547685e+00
  1.746729e+01    1.575211e+00
  1.757842e+01    1.529517e+00
  1.768955e+01    1.540780e+00
  1.780067e+01    1.540205e+00
  1.791180e+01    1.502295e+00
  1.802293e+01    1.466029e+00
  1.813406e+01    1.457461e+00
  1.824519e+01    1.437000e+00
  1.835632e+01    1.423809e+00
  1.846745e+01    1.420640e+00
  1.857858e+01    1.399903e+00
  1.868971e+01    1.400303e+00
  1.880084e+01    1.387892e+00
  1.891196e+01    1.362723e+00
  1.902309e+01    1.328071e+00
  1.913422e+01    1.331960e+00
  1.924535e+01    1.349393e+00
  1.935648e+01    1.320247e+00
  1.946761e+01    1.322108e+00
  1.957874e+01    1.285689e+00
  1.968987e+01    1.291872e+00
  1.980100e+01    1.279160e+00
  1.991213e+01    1.270168e+00
  2.002325e+01    1.244413e+00
  2.013438e+01    1.241187e+00
  2.024551e+01    1.232257e+00
  2.035664e+01    1.225878e+00
  2.046777e+01    1.209858e+00
  2.057890e+01    1.203582e+00
  2.069003e+01    1.182557e+00
  2.080116e+01    1.190055e+00
  2.091229e+01    1.188298e+00
  2.102342e+01    1.213022e+00
  2.113455e+01    1.205758e+00
  2.124567e+01    1.222290e+00
  2.135680e+01    1.279983e+00
  2.146793e+01    1.350907e+00
  2.157906e+01    1.582655e+00
  2.169019e+01    2.458936e+00
  2.180132e+01    5.672064e+00
  2.191245e+01    8.669025e+00
  2.202358e+01    3.603582e+00
  2.213471e+01    1.842341e+00
  2.224584e+01    1.368025e+00
  2.235696e+01    1.221334e+00
  2.246809e+01    1.161890e+00
  2.257922e+01    1.100491e+00
  2.269035e+01    1.067615e+00
  2.280148e+01    1.057533e+00
  2.291261e+01    9.918990e-01
  2.302374e+01    1.010705e+00
  2.313487e+01    1.002086e+00
  2.324600e+01    9.860618e-01
  2.335713e+01    9.441544e-01
  2.346825e+01    9.557151e-01
  2.357938e+01    9.491373e-01
  2.369051e+01    9.408460e-01
  2.380164e+01    9.189318e-01
  2.391277e+01    8.742136e-01
  2.402390e+01    8.858905e-01
  2.413503e+01    8.737954e-01
  2.424616e+01    8.747280e-01
  2.435729e+01    8.979387e-01
  2.446842e+01    8.697932e-01
  2.457954e+01    8.858323e-01
  2.469067e+01    8.702648e-01
  2.480180e+01    8.942830e-01
  2.491293e+01    8.826587e-01
  2.502406e+01    8.843800e-01
  2.513519e+01    8.830500e-01
  2.524632e+01    9.247414e-01
  2.535745e+01    9.493806e-01
  2.546858e+01    1.028061e+00
  2.557971e+01    1.139844e+00
  2.569083e+01    1.464574e+00
  2.580196e+01    2.750756e+00
  2.591309e+01    6.267388e+00
  2.602422e+01    5.237877e+00
  2.613535e+01    2.117618e+00
  2.624648e+01    1.340122e+00
  2.635761e+01    1.093511e+00
  2.646874e+01    1.012527e+00
  2.657987e+01    9.505256e-01
  2.669100e+01    9.340728e-01
  2.680212e+01    9.637542e-01
  2.691325e+01    1.002265e+00
  2.702438e+01    1.133598e+00
  2.713551e+01    1.701765e+00
  2.724664e+01    2.053798e+00
  2.735777e+01    1.270939e+00
  2.746890e+01    1.010246e+00
  2.758003e+01    9.249890e-01
  2.769116e+01    8.881389e-01
  2.780229e+01    9.097333e-01
  2.791342e+01    8.659864e-01
  2.802454e+01    8.475186e-01
  2.813567e+01    8.580269e-01
  2.824680e+01    8.574079e-01
  2.835793e+01    8.387415e-01
  2.846906e+01    8.332708e-01
  2.858019e+01    8.398245e-01
  2.869132e+01    8.287452e-01
  2.880245e+01    8.166606e-01
  2.891358e+01    8.117809e-01
  2.902471e+01    8.113780e-01
  2.913583e+01    8.339524e-01
  2.924696e+01    7.919974e-01
  2.935809e+01    7.820698e-01
  2.946922e+01    8.104594e-01
  2.958035e+01    7.853932e-01
  2.969148e+01    8.176727e-01
  2.980261e+01    7.639683e-01
  2.991374e+01    7.742318e-01
  3.002487e+01    7.938271e-01
  3.013600e+01    7.782407e-01
  3.024712e+01    7.902153e-01
  3.035825e+01    7.630265e-01
  3.046938e+01    7.868133e-01
  3.058051e+01    7.739688e-01
  3.069164e+01    7.484783e-01
  3.080277e+01    7.748501e-01
  3.091390e+01    7.816397e-01
  3.102503e+01    7.695845e-01
  3.113616e+01    7.726513e-01
  3.124729e+01    7.817923e-01
  3.135841e+01    7.887079e-01
  3.146954e+01    7.965360e-01
  3.158067e+01    8.504173e-01
  3.169180e+01    1.005790e+00
  3.180293e+01    1.442602e+00
  3.191406e+01    2.042969e+00
  3.202519e+01    1.325752e+00
  3.213632e+01    9.043253e-01
  3.224745e+01    7.765748e-01
  3.235858e+01    7.754479e-01
  3.246970e+01    7.701831e-01
  3.254908e+01    7.618830e-01