File: XRD/Reaction conditions/2024-07-27_003_Ru-CGO-ex_Reaction_dwell_000023_data_000123.dat
# == pyFAI calibration ==
# Distance Sample to Detector: 0.4 m
# PONI: 9.750e-02, 1.135e-01 m
# Rotations: -0.000175 0.000000 -0.000000 rad
#
# == Fit2d calibration ==
# Distance Sample-beamCenter: 400.000 mm
# Center: x=1514.000, y=1300.000 pix
# Tilt: 0.010 deg  TiltPlanRot: 0.010 deg
#
# Detector Detector	 Spline= None	 PixelSize= 7.500e-05, 7.500e-05 m
#    Detector has a mask: False
#    Detector has a dark current: False
#    detector has a flat field: False
#
# Wavelength: 6.888e-11 m
# Mask applied: user provided
# Dark current applied: False
# Flat field applied: False
# Polarization factor: 0.99
# Normalization factor: 1.0
# --> /home/myspot/data/2024_07_Rosario/Ru-CGO-ex/2024-07-27_003_Ru-CGO-ex_Reaction_dwell_000023_data_000123.dat
#       q_nm^-1             I
  2.003187e-02    1.647358e-01
  1.311609e-01    4.896364e-02
  2.422899e-01    2.251531e-02
  3.534189e-01    5.373688e-02
  4.645479e-01    3.697453e-02
  5.756770e-01    5.396256e-02
  6.868060e-01    2.810264e-02
  7.979350e-01    2.024829e-01
  9.090640e-01    6.446331e-01
  1.020193e+00    1.275846e+00
  1.131322e+00    1.669259e+00
  1.242451e+00    2.378493e+00
  1.353580e+00    2.816068e+00
  1.464709e+00    3.081776e+00
  1.575838e+00    3.191088e+00
  1.686967e+00    3.090656e+00
  1.798096e+00    3.025165e+00
  1.909225e+00    2.994984e+00
  2.020354e+00    2.998359e+00
  2.131483e+00    3.224026e+00
  2.242612e+00    3.193377e+00
  2.353741e+00    3.191032e+00
  2.464870e+00    3.136168e+00
  2.575999e+00    3.247839e+00
  2.687128e+00    3.263977e+00
  2.798257e+00    3.320488e+00
  2.909386e+00    3.230074e+00
  3.020515e+00    3.292214e+00
  3.131644e+00    3.356010e+00
  3.242773e+00    3.447238e+00
  3.353902e+00    3.401148e+00
  3.465031e+00    3.379800e+00
  3.576160e+00    3.486660e+00
  3.687289e+00    3.544609e+00
  3.798418e+00    3.429293e+00
  3.909547e+00    3.508106e+00
  4.020676e+00    3.564699e+00
  4.131806e+00    3.521307e+00
  4.242935e+00    3.517485e+00
  4.354064e+00    3.607255e+00
  4.465193e+00    3.603085e+00
  4.576322e+00    3.637687e+00
  4.687451e+00    3.565214e+00
  4.798580e+00    3.617946e+00
  4.909709e+00    3.588674e+00
  5.020838e+00    3.636282e+00
  5.131967e+00    3.688658e+00
  5.243096e+00    3.716708e+00
  5.354225e+00    3.678602e+00
  5.465354e+00    3.642924e+00
  5.576483e+00    3.569546e+00
  5.687612e+00    3.625847e+00
  5.798741e+00    3.533919e+00
  5.909870e+00    3.585179e+00
  6.020999e+00    3.531927e+00
  6.132128e+00    3.603332e+00
  6.243257e+00    3.595499e+00
  6.354386e+00    3.621645e+00
  6.465515e+00    3.593826e+00
  6.576644e+00    3.541785e+00
  6.687773e+00    3.524281e+00
  6.798902e+00    3.523154e+00
  6.910031e+00    3.497267e+00
  7.021160e+00    3.536257e+00
  7.132289e+00    3.502643e+00
  7.243418e+00    3.483292e+00
  7.354547e+00    3.485641e+00
  7.465676e+00    3.487342e+00
  7.576805e+00    3.490841e+00
  7.687934e+00    3.395774e+00
  7.799063e+00    3.458662e+00
  7.910192e+00    3.476904e+00
  8.021321e+00    3.458804e+00
  8.132450e+00    3.413462e+00
  8.243579e+00    3.450290e+00
  8.354708e+00    3.412881e+00
  8.465837e+00    3.389114e+00
  8.576966e+00    3.413337e+00
  8.688095e+00    3.320281e+00
  8.799224e+00    3.336840e+00
  8.910353e+00    3.298798e+00
  9.021482e+00    3.319593e+00
  9.132611e+00    3.256785e+00
  9.243740e+00    3.242320e+00
  9.354869e+00    3.237248e+00
  9.465998e+00    3.208542e+00
  9.577127e+00    3.208018e+00
  9.688256e+00    3.175646e+00
  9.799385e+00    3.125442e+00
  9.910514e+00    3.116642e+00
  1.002164e+01    3.094178e+00
  1.013277e+01    3.095235e+00
  1.024390e+01    3.069607e+00
  1.035503e+01    3.021222e+00
  1.046616e+01    3.024304e+00
  1.057729e+01    3.052105e+00
  1.068842e+01    2.979839e+00
  1.079955e+01    2.950673e+00
  1.091068e+01    2.973080e+00
  1.102180e+01    2.915158e+00
  1.113293e+01    2.879545e+00
  1.124406e+01    2.936385e+00
  1.135519e+01    2.828077e+00
  1.146632e+01    2.766168e+00
  1.157745e+01    2.769886e+00
  1.168858e+01    2.779961e+00
  1.179971e+01    2.796317e+00
  1.191084e+01    2.728621e+00
  1.202197e+01    2.723984e+00
  1.213309e+01    2.704950e+00
  1.224422e+01    2.719661e+00
  1.235535e+01    2.679566e+00
  1.246648e+01    2.698148e+00
  1.257761e+01    2.722570e+00
  1.268874e+01    2.785803e+00
  1.279987e+01    2.981156e+00
  1.291100e+01    3.644672e+00
  1.302213e+01    6.599082e+00
  1.313326e+01    1.483553e+01
  1.324438e+01    1.065854e+01
  1.335551e+01    4.454271e+00
  1.346664e+01    3.171461e+00
  1.357777e+01    2.766156e+00
  1.368890e+01    2.548643e+00
  1.380003e+01    2.463389e+00
  1.391116e+01    2.408365e+00
  1.402229e+01    2.336715e+00
  1.413342e+01    2.277680e+00
  1.424455e+01    2.267640e+00
  1.435568e+01    2.217530e+00
  1.446680e+01    2.239320e+00
  1.457793e+01    2.212352e+00
  1.468906e+01    2.208270e+00
  1.480019e+01    2.197522e+00
  1.491132e+01    2.238325e+00
  1.502245e+01    2.532413e+00
  1.513358e+01    3.812003e+00
  1.524471e+01    5.634076e+00
  1.535584e+01    3.790262e+00
  1.546697e+01    2.440857e+00
  1.557809e+01    2.151111e+00
  1.568922e+01    2.002640e+00
  1.580035e+01    1.979647e+00
  1.591148e+01    1.889009e+00
  1.602261e+01    1.895406e+00
  1.613374e+01    1.837502e+00
  1.624487e+01    1.813628e+00
  1.635600e+01    1.787419e+00
  1.646713e+01    1.760934e+00
  1.657826e+01    1.733839e+00
  1.668938e+01    1.708874e+00
  1.680051e+01    1.698249e+00
  1.691164e+01    1.692768e+00
  1.702277e+01    1.656046e+00
  1.713390e+01    1.651863e+00
  1.724503e+01    1.631953e+00
  1.735616e+01    1.643098e+00
  1.746729e+01    1.603440e+00
  1.757842e+01    1.573782e+00
  1.768955e+01    1.566888e+00
  1.780067e+01    1.512957e+00
  1.791180e+01    1.536472e+00
  1.802293e+01    1.482841e+00
  1.813406e+01    1.517970e+00
  1.824519e+01    1.462244e+00
  1.835632e+01    1.454342e+00
  1.846745e+01    1.454527e+00
  1.857858e+01    1.427772e+00
  1.868971e+01    1.410436e+00
  1.880084e+01    1.436096e+00
  1.891196e+01    1.400940e+00
  1.902309e+01    1.381998e+00
  1.913422e+01    1.375047e+00
  1.924535e+01    1.334768e+00
  1.935648e+01    1.361512e+00
  1.946761e+01    1.349508e+00
  1.957874e+01    1.317974e+00
  1.968987e+01    1.298794e+00
  1.980100e+01    1.286111e+00
  1.991213e+01    1.284151e+00
  2.002325e+01    1.265715e+00
  2.013438e+01    1.279000e+00
  2.024551e+01    1.243541e+00
  2.035664e+01    1.255800e+00
  2.046777e+01    1.243014e+00
  2.057890e+01    1.207863e+00
  2.069003e+01    1.231189e+00
  2.080116e+01    1.231881e+00
  2.091229e+01    1.222557e+00
  2.102342e+01    1.247148e+00
  2.113455e+01    1.227982e+00
  2.124567e+01    1.229963e+00
  2.135680e+01    1.304252e+00
  2.146793e+01    1.370197e+00
  2.157906e+01    1.612512e+00
  2.169019e+01    2.522314e+00
  2.180132e+01    5.804056e+00
  2.191245e+01    8.809372e+00
  2.202358e+01    3.605529e+00
  2.213471e+01    1.862443e+00
  2.224584e+01    1.440800e+00
  2.235696e+01    1.242627e+00
  2.246809e+01    1.158845e+00
  2.257922e+01    1.135192e+00
  2.269035e+01    1.061060e+00
  2.280148e+01    1.054211e+00
  2.291261e+01    1.032982e+00
  2.302374e+01    1.036504e+00
  2.313487e+01    1.009793e+00
  2.324600e+01    9.714407e-01
  2.335713e+01    9.801987e-01
  2.346825e+01    9.519604e-01
  2.357938e+01    9.606944e-01
  2.369051e+01    9.477697e-01
  2.380164e+01    9.227277e-01
  2.391277e+01    9.289899e-01
  2.402390e+01    8.757310e-01
  2.413503e+01    8.864270e-01
  2.424616e+01    8.767948e-01
  2.435729e+01    8.803875e-01
  2.446842e+01    8.928804e-01
  2.457954e+01    9.070862e-01
  2.469067e+01    8.859171e-01
  2.480180e+01    9.129968e-01
  2.491293e+01    8.994418e-01
  2.502406e+01    8.891408e-01
  2.513519e+01    9.060135e-01
  2.524632e+01    9.458119e-01
  2.535745e+01    9.519302e-01
  2.546858e+01    1.043118e+00
  2.557971e+01    1.174995e+00
  2.569083e+01    1.504794e+00
  2.580196e+01    2.761385e+00
  2.591309e+01    6.314012e+00
  2.602422e+01    5.277184e+00
  2.613535e+01    2.137636e+00
  2.624648e+01    1.332047e+00
  2.635761e+01    1.082741e+00
  2.646874e+01    9.992803e-01
  2.657987e+01    9.831080e-01
  2.669100e+01    9.718156e-01
  2.680212e+01    9.759315e-01
  2.691325e+01    1.022714e+00
  2.702438e+01    1.147952e+00
  2.713551e+01    1.707995e+00
  2.724664e+01    2.061553e+00
  2.735777e+01    1.295978e+00
  2.746890e+01    1.001830e+00
  2.758003e+01    9.386758e-01
  2.769116e+01    8.978313e-01
  2.780229e+01    9.001128e-01
  2.791342e+01    8.745797e-01
  2.802454e+01    8.706254e-01
  2.813567e+01    8.649865e-01
  2.824680e+01    8.349667e-01
  2.835793e+01    8.533139e-01
  2.846906e+01    8.676607e-01
  2.858019e+01    8.381678e-01
  2.869132e+01    8.196483e-01
  2.880245e+01    8.315678e-01
  2.891358e+01    8.152975e-01
  2.902471e+01    8.144262e-01
  2.913583e+01    7.903287e-01
  2.924696e+01    8.342938e-01
  2.935809e+01    7.891384e-01
  2.946922e+01    8.096167e-01
  2.958035e+01    7.932363e-01
  2.969148e+01    8.004364e-01
  2.980261e+01    7.970731e-01
  2.991374e+01    8.015833e-01
  3.002487e+01    7.822980e-01
  3.013600e+01    7.881015e-01
  3.024712e+01    7.682637e-01
  3.035825e+01    7.678940e-01
  3.046938e+01    8.079914e-01
  3.058051e+01    7.736869e-01
  3.069164e+01    7.750043e-01
  3.080277e+01    7.826957e-01
  3.091390e+01    7.754197e-01
  3.102503e+01    7.926013e-01
  3.113616e+01    7.749810e-01
  3.124729e+01    7.860507e-01
  3.135841e+01    8.044294e-01
  3.146954e+01    8.137291e-01
  3.158067e+01    8.647202e-01
  3.169180e+01    9.734710e-01
  3.180293e+01    1.452635e+00
  3.191406e+01    2.031317e+00
  3.202519e+01    1.305060e+00
  3.213632e+01    9.450254e-01
  3.224745e+01    8.274533e-01
  3.235858e+01    8.108966e-01
  3.246970e+01    7.846398e-01
  3.254908e+01    7.763645e-01