File: XRD/Reaction conditions/2024-07-27_003_Ru-CGO-ex_Reaction_dwell_000023_data_000087.dat
# == pyFAI calibration ==
# Distance Sample to Detector: 0.4 m
# PONI: 9.750e-02, 1.135e-01 m
# Rotations: -0.000175 0.000000 -0.000000 rad
#
# == Fit2d calibration ==
# Distance Sample-beamCenter: 400.000 mm
# Center: x=1514.000, y=1300.000 pix
# Tilt: 0.010 deg  TiltPlanRot: 0.010 deg
#
# Detector Detector	 Spline= None	 PixelSize= 7.500e-05, 7.500e-05 m
#    Detector has a mask: False
#    Detector has a dark current: False
#    detector has a flat field: False
#
# Wavelength: 6.888e-11 m
# Mask applied: user provided
# Dark current applied: False
# Flat field applied: False
# Polarization factor: 0.99
# Normalization factor: 1.0
# --> /home/myspot/data/2024_07_Rosario/Ru-CGO-ex/2024-07-27_003_Ru-CGO-ex_Reaction_dwell_000023_data_000087.dat
#       q_nm^-1             I
  2.003187e-02    7.712225e-02
  1.311609e-01    2.083509e-02
  2.422899e-01    2.193459e-02
  3.534189e-01    3.609525e-02
  4.645479e-01    2.789195e-02
  5.756770e-01    4.423986e-02
  6.868060e-01    5.190605e-02
  7.979350e-01    1.818977e-01
  9.090640e-01    6.885070e-01
  1.020193e+00    1.271672e+00
  1.131322e+00    1.577637e+00
  1.242451e+00    2.183722e+00
  1.353580e+00    2.809889e+00
  1.464709e+00    3.003641e+00
  1.575838e+00    3.179615e+00
  1.686967e+00    3.095976e+00
  1.798096e+00    3.227484e+00
  1.909225e+00    2.986706e+00
  2.020354e+00    3.001860e+00
  2.131483e+00    3.202176e+00
  2.242612e+00    3.077241e+00
  2.353741e+00    3.058571e+00
  2.464870e+00    3.173573e+00
  2.575999e+00    3.109776e+00
  2.687128e+00    3.211006e+00
  2.798257e+00    3.307409e+00
  2.909386e+00    3.367633e+00
  3.020515e+00    3.356244e+00
  3.131644e+00    3.214619e+00
  3.242773e+00    3.396532e+00
  3.353902e+00    3.369363e+00
  3.465031e+00    3.434110e+00
  3.576160e+00    3.433334e+00
  3.687289e+00    3.446116e+00
  3.798418e+00    3.441552e+00
  3.909547e+00    3.609705e+00
  4.020676e+00    3.537599e+00
  4.131806e+00    3.513343e+00
  4.242935e+00    3.609535e+00
  4.354064e+00    3.444881e+00
  4.465193e+00    3.680607e+00
  4.576322e+00    3.712931e+00
  4.687451e+00    3.647398e+00
  4.798580e+00    3.590165e+00
  4.909709e+00    3.697460e+00
  5.020838e+00    3.643785e+00
  5.131967e+00    3.688801e+00
  5.243096e+00    3.666433e+00
  5.354225e+00    3.692527e+00
  5.465354e+00    3.624722e+00
  5.576483e+00    3.546174e+00
  5.687612e+00    3.586044e+00
  5.798741e+00    3.490788e+00
  5.909870e+00    3.647589e+00
  6.020999e+00    3.455519e+00
  6.132128e+00    3.586696e+00
  6.243257e+00    3.524955e+00
  6.354386e+00    3.470383e+00
  6.465515e+00    3.635366e+00
  6.576644e+00    3.578315e+00
  6.687773e+00    3.588930e+00
  6.798902e+00    3.586092e+00
  6.910031e+00    3.535460e+00
  7.021160e+00    3.527216e+00
  7.132289e+00    3.489809e+00
  7.243418e+00    3.528651e+00
  7.354547e+00    3.470215e+00
  7.465676e+00    3.420700e+00
  7.576805e+00    3.444921e+00
  7.687934e+00    3.477081e+00
  7.799063e+00    3.431400e+00
  7.910192e+00    3.453706e+00
  8.021321e+00    3.442115e+00
  8.132450e+00    3.483588e+00
  8.243579e+00    3.434128e+00
  8.354708e+00    3.353713e+00
  8.465837e+00    3.350179e+00
  8.576966e+00    3.375285e+00
  8.688095e+00    3.282766e+00
  8.799224e+00    3.319739e+00
  8.910353e+00    3.273783e+00
  9.021482e+00    3.238202e+00
  9.132611e+00    3.281350e+00
  9.243740e+00    3.304875e+00
  9.354869e+00    3.249212e+00
  9.465998e+00    3.191079e+00
  9.577127e+00    3.174302e+00
  9.688256e+00    3.146896e+00
  9.799385e+00    3.172114e+00
  9.910514e+00    3.106818e+00
  1.002164e+01    3.114813e+00
  1.013277e+01    3.081201e+00
  1.024390e+01    3.063971e+00
  1.035503e+01    3.094966e+00
  1.046616e+01    3.045772e+00
  1.057729e+01    3.030924e+00
  1.068842e+01    3.016399e+00
  1.079955e+01    2.986210e+00
  1.091068e+01    2.974649e+00
  1.102180e+01    2.919219e+00
  1.113293e+01    2.864247e+00
  1.124406e+01    2.844000e+00
  1.135519e+01    2.860104e+00
  1.146632e+01    2.783044e+00
  1.157745e+01    2.774746e+00
  1.168858e+01    2.835627e+00
  1.179971e+01    2.725795e+00
  1.191084e+01    2.733000e+00
  1.202197e+01    2.695474e+00
  1.213309e+01    2.692930e+00
  1.224422e+01    2.676131e+00
  1.235535e+01    2.718220e+00
  1.246648e+01    2.694913e+00
  1.257761e+01    2.736897e+00
  1.268874e+01    2.811899e+00
  1.279987e+01    3.016402e+00
  1.291100e+01    3.687055e+00
  1.302213e+01    6.797472e+00
  1.313326e+01    1.500557e+01
  1.324438e+01    1.070410e+01
  1.335551e+01    4.423867e+00
  1.346664e+01    3.139514e+00
  1.357777e+01    2.755303e+00
  1.368890e+01    2.607674e+00
  1.380003e+01    2.437479e+00
  1.391116e+01    2.428766e+00
  1.402229e+01    2.356537e+00
  1.413342e+01    2.268809e+00
  1.424455e+01    2.271770e+00
  1.435568e+01    2.288260e+00
  1.446680e+01    2.220632e+00
  1.457793e+01    2.220424e+00
  1.468906e+01    2.172418e+00
  1.480019e+01    2.200654e+00
  1.491132e+01    2.270665e+00
  1.502245e+01    2.535680e+00
  1.513358e+01    3.816068e+00
  1.524471e+01    5.808624e+00
  1.535584e+01    3.756554e+00
  1.546697e+01    2.462586e+00
  1.557809e+01    2.125523e+00
  1.568922e+01    2.015604e+00
  1.580035e+01    1.918844e+00
  1.591148e+01    1.885794e+00
  1.602261e+01    1.879114e+00
  1.613374e+01    1.835161e+00
  1.624487e+01    1.807072e+00
  1.635600e+01    1.784296e+00
  1.646713e+01    1.801694e+00
  1.657826e+01    1.753007e+00
  1.668938e+01    1.696000e+00
  1.680051e+01    1.696819e+00
  1.691164e+01    1.682813e+00
  1.702277e+01    1.658027e+00
  1.713390e+01    1.633762e+00
  1.724503e+01    1.614995e+00
  1.735616e+01    1.645601e+00
  1.746729e+01    1.575314e+00
  1.757842e+01    1.591978e+00
  1.768955e+01    1.535043e+00
  1.780067e+01    1.554018e+00
  1.791180e+01    1.531923e+00
  1.802293e+01    1.510462e+00
  1.813406e+01    1.505908e+00
  1.824519e+01    1.478937e+00
  1.835632e+01    1.481257e+00
  1.846745e+01    1.428388e+00
  1.857858e+01    1.439829e+00
  1.868971e+01    1.403206e+00
  1.880084e+01    1.392421e+00
  1.891196e+01    1.372875e+00
  1.902309e+01    1.362223e+00
  1.913422e+01    1.376132e+00
  1.924535e+01    1.361921e+00
  1.935648e+01    1.351618e+00
  1.946761e+01    1.325550e+00
  1.957874e+01    1.336185e+00
  1.968987e+01    1.310604e+00
  1.980100e+01    1.323043e+00
  1.991213e+01    1.283886e+00
  2.002325e+01    1.265605e+00
  2.013438e+01    1.273136e+00
  2.024551e+01    1.246468e+00
  2.035664e+01    1.246279e+00
  2.046777e+01    1.253861e+00
  2.057890e+01    1.256014e+00
  2.069003e+01    1.214638e+00
  2.080116e+01    1.197010e+00
  2.091229e+01    1.239447e+00
  2.102342e+01    1.239410e+00
  2.113455e+01    1.238049e+00
  2.124567e+01    1.235835e+00
  2.135680e+01    1.278919e+00
  2.146793e+01    1.384032e+00
  2.157906e+01    1.645000e+00
  2.169019e+01    2.568375e+00
  2.180132e+01    5.974241e+00
  2.191245e+01    8.745335e+00
  2.202358e+01    3.603981e+00
  2.213471e+01    1.873297e+00
  2.224584e+01    1.435904e+00
  2.235696e+01    1.256877e+00
  2.246809e+01    1.155910e+00
  2.257922e+01    1.131769e+00
  2.269035e+01    1.087619e+00
  2.280148e+01    1.066892e+00
  2.291261e+01    1.029372e+00
  2.302374e+01    1.000752e+00
  2.313487e+01    9.799531e-01
  2.324600e+01    9.943595e-01
  2.335713e+01    9.905413e-01
  2.346825e+01    9.761506e-01
  2.357938e+01    9.756526e-01
  2.369051e+01    9.506310e-01
  2.380164e+01    9.100101e-01
  2.391277e+01    9.042469e-01
  2.402390e+01    9.230649e-01
  2.413503e+01    8.884851e-01
  2.424616e+01    8.746803e-01
  2.435729e+01    8.993208e-01
  2.446842e+01    8.815369e-01
  2.457954e+01    8.894042e-01
  2.469067e+01    8.916729e-01
  2.480180e+01    8.991985e-01
  2.491293e+01    9.002438e-01
  2.502406e+01    9.094956e-01
  2.513519e+01    9.154140e-01
  2.524632e+01    9.386779e-01
  2.535745e+01    9.762020e-01
  2.546858e+01    1.033245e+00
  2.557971e+01    1.140101e+00
  2.569083e+01    1.523753e+00
  2.580196e+01    2.851654e+00
  2.591309e+01    6.416381e+00
  2.602422e+01    5.228482e+00
  2.613535e+01    2.106636e+00
  2.624648e+01    1.339296e+00
  2.635761e+01    1.097154e+00
  2.646874e+01    1.031477e+00
  2.657987e+01    9.947830e-01
  2.669100e+01    9.756393e-01
  2.680212e+01    9.821205e-01
  2.691325e+01    1.018369e+00
  2.702438e+01    1.160125e+00
  2.713551e+01    1.752014e+00
  2.724664e+01    2.065208e+00
  2.735777e+01    1.269433e+00
  2.746890e+01    1.012202e+00
  2.758003e+01    9.206076e-01
  2.769116e+01    8.893756e-01
  2.780229e+01    8.878636e-01
  2.791342e+01    8.720630e-01
  2.802454e+01    8.690581e-01
  2.813567e+01    8.445254e-01
  2.824680e+01    8.572559e-01
  2.835793e+01    8.128729e-01
  2.846906e+01    8.497438e-01
  2.858019e+01    8.342742e-01
  2.869132e+01    8.334484e-01
  2.880245e+01    8.314266e-01
  2.891358e+01    8.329736e-01
  2.902471e+01    8.070412e-01
  2.913583e+01    8.249186e-01
  2.924696e+01    8.176414e-01
  2.935809e+01    8.218947e-01
  2.946922e+01    8.124041e-01
  2.958035e+01    8.151942e-01
  2.969148e+01    7.849028e-01
  2.980261e+01    7.997124e-01
  2.991374e+01    8.238034e-01
  3.002487e+01    8.241624e-01
  3.013600e+01    7.905705e-01
  3.024712e+01    7.846060e-01
  3.035825e+01    7.701505e-01
  3.046938e+01    7.897992e-01
  3.058051e+01    7.728979e-01
  3.069164e+01    8.077263e-01
  3.080277e+01    8.035117e-01
  3.091390e+01    7.890183e-01
  3.102503e+01    7.811285e-01
  3.113616e+01    7.948353e-01
  3.124729e+01    7.998334e-01
  3.135841e+01    8.418217e-01
  3.146954e+01    8.273867e-01
  3.158067e+01    8.795367e-01
  3.169180e+01    1.003134e+00
  3.180293e+01    1.490374e+00
  3.191406e+01    2.137658e+00
  3.202519e+01    1.323674e+00
  3.213632e+01    9.227882e-01
  3.224745e+01    8.136374e-01
  3.235858e+01    8.063225e-01
  3.246970e+01    7.900051e-01
  3.254908e+01    7.652083e-01