File: XRD/Reaction conditions/2024-07-27_003_Ru-CGO-ex_Reaction_dwell_000023_data_000175.dat
# == pyFAI calibration ==
# Distance Sample to Detector: 0.4 m
# PONI: 9.750e-02, 1.135e-01 m
# Rotations: -0.000175 0.000000 -0.000000 rad
#
# == Fit2d calibration ==
# Distance Sample-beamCenter: 400.000 mm
# Center: x=1514.000, y=1300.000 pix
# Tilt: 0.010 deg  TiltPlanRot: 0.010 deg
#
# Detector Detector	 Spline= None	 PixelSize= 7.500e-05, 7.500e-05 m
#    Detector has a mask: False
#    Detector has a dark current: False
#    detector has a flat field: False
#
# Wavelength: 6.888e-11 m
# Mask applied: user provided
# Dark current applied: False
# Flat field applied: False
# Polarization factor: 0.99
# Normalization factor: 1.0
# --> /home/myspot/data/2024_07_Rosario/Ru-CGO-ex/2024-07-27_003_Ru-CGO-ex_Reaction_dwell_000023_data_000175.dat
#       q_nm^-1             I
  2.003187e-02    0.000000e+00
  1.311609e-01    7.249683e-02
  2.422899e-01    1.976032e-02
  3.534189e-01    5.869405e-02
  4.645479e-01    2.583774e-02
  5.756770e-01    4.617253e-02
  6.868060e-01    5.966211e-02
  7.979350e-01    1.719996e-01
  9.090640e-01    7.643107e-01
  1.020193e+00    1.248761e+00
  1.131322e+00    1.629128e+00
  1.242451e+00    2.399155e+00
  1.353580e+00    2.774410e+00
  1.464709e+00    2.837802e+00
  1.575838e+00    3.188558e+00
  1.686967e+00    3.236033e+00
  1.798096e+00    3.067214e+00
  1.909225e+00    3.122703e+00
  2.020354e+00    3.028953e+00
  2.131483e+00    3.066130e+00
  2.242612e+00    3.099616e+00
  2.353741e+00    3.128249e+00
  2.464870e+00    3.278373e+00
  2.575999e+00    3.136570e+00
  2.687128e+00    3.261554e+00
  2.798257e+00    3.199561e+00
  2.909386e+00    3.263831e+00
  3.020515e+00    3.136282e+00
  3.131644e+00    3.293421e+00
  3.242773e+00    3.370762e+00
  3.353902e+00    3.377360e+00
  3.465031e+00    3.335607e+00
  3.576160e+00    3.352503e+00
  3.687289e+00    3.363606e+00
  3.798418e+00    3.359443e+00
  3.909547e+00    3.399128e+00
  4.020676e+00    3.541868e+00
  4.131806e+00    3.485140e+00
  4.242935e+00    3.515396e+00
  4.354064e+00    3.527611e+00
  4.465193e+00    3.572002e+00
  4.576322e+00    3.530720e+00
  4.687451e+00    3.491435e+00
  4.798580e+00    3.572650e+00
  4.909709e+00    3.613974e+00
  5.020838e+00    3.563522e+00
  5.131967e+00    3.608796e+00
  5.243096e+00    3.654782e+00
  5.354225e+00    3.573189e+00
  5.465354e+00    3.587693e+00
  5.576483e+00    3.513756e+00
  5.687612e+00    3.561944e+00
  5.798741e+00    3.480892e+00
  5.909870e+00    3.478817e+00
  6.020999e+00    3.566247e+00
  6.132128e+00    3.541345e+00
  6.243257e+00    3.554537e+00
  6.354386e+00    3.492901e+00
  6.465515e+00    3.503811e+00
  6.576644e+00    3.478544e+00
  6.687773e+00    3.440042e+00
  6.798902e+00    3.458845e+00
  6.910031e+00    3.477844e+00
  7.021160e+00    3.531486e+00
  7.132289e+00    3.473066e+00
  7.243418e+00    3.498508e+00
  7.354547e+00    3.416034e+00
  7.465676e+00    3.395285e+00
  7.576805e+00    3.391510e+00
  7.687934e+00    3.441490e+00
  7.799063e+00    3.447065e+00
  7.910192e+00    3.320072e+00
  8.021321e+00    3.411473e+00
  8.132450e+00    3.444438e+00
  8.243579e+00    3.400957e+00
  8.354708e+00    3.421137e+00
  8.465837e+00    3.335349e+00
  8.576966e+00    3.268725e+00
  8.688095e+00    3.223926e+00
  8.799224e+00    3.231234e+00
  8.910353e+00    3.242237e+00
  9.021482e+00    3.271604e+00
  9.132611e+00    3.269381e+00
  9.243740e+00    3.143536e+00
  9.354869e+00    3.146163e+00
  9.465998e+00    3.201844e+00
  9.577127e+00    3.188823e+00
  9.688256e+00    3.120919e+00
  9.799385e+00    3.131897e+00
  9.910514e+00    3.129131e+00
  1.002164e+01    3.057470e+00
  1.013277e+01    3.038156e+00
  1.024390e+01    3.029733e+00
  1.035503e+01    3.007907e+00
  1.046616e+01    2.975893e+00
  1.057729e+01    2.976054e+00
  1.068842e+01    2.973917e+00
  1.079955e+01    2.922734e+00
  1.091068e+01    2.883877e+00
  1.102180e+01    2.840294e+00
  1.113293e+01    2.841670e+00
  1.124406e+01    2.807033e+00
  1.135519e+01    2.779122e+00
  1.146632e+01    2.753551e+00
  1.157745e+01    2.714938e+00
  1.168858e+01    2.729795e+00
  1.179971e+01    2.671560e+00
  1.191084e+01    2.690753e+00
  1.202197e+01    2.651393e+00
  1.213309e+01    2.659464e+00
  1.224422e+01    2.657528e+00
  1.235535e+01    2.637657e+00
  1.246648e+01    2.642576e+00
  1.257761e+01    2.687285e+00
  1.268874e+01    2.789162e+00
  1.279987e+01    2.975953e+00
  1.291100e+01    3.607575e+00
  1.302213e+01    6.679837e+00
  1.313326e+01    1.469276e+01
  1.324438e+01    1.049043e+01
  1.335551e+01    4.428620e+00
  1.346664e+01    3.136421e+00
  1.357777e+01    2.694076e+00
  1.368890e+01    2.495436e+00
  1.380003e+01    2.486364e+00
  1.391116e+01    2.422751e+00
  1.402229e+01    2.307969e+00
  1.413342e+01    2.292108e+00
  1.424455e+01    2.244982e+00
  1.435568e+01    2.248059e+00
  1.446680e+01    2.190040e+00
  1.457793e+01    2.222298e+00
  1.468906e+01    2.163727e+00
  1.480019e+01    2.218342e+00
  1.491132e+01    2.235370e+00
  1.502245e+01    2.484726e+00
  1.513358e+01    3.782056e+00
  1.524471e+01    5.707432e+00
  1.535584e+01    3.713823e+00
  1.546697e+01    2.370851e+00
  1.557809e+01    2.092148e+00
  1.568922e+01    1.981543e+00
  1.580035e+01    1.880872e+00
  1.591148e+01    1.848268e+00
  1.602261e+01    1.832691e+00
  1.613374e+01    1.810944e+00
  1.624487e+01    1.801898e+00
  1.635600e+01    1.735342e+00
  1.646713e+01    1.757960e+00
  1.657826e+01    1.740975e+00
  1.668938e+01    1.697220e+00
  1.680051e+01    1.670646e+00
  1.691164e+01    1.660043e+00
  1.702277e+01    1.631234e+00
  1.713390e+01    1.619691e+00
  1.724503e+01    1.602680e+00
  1.735616e+01    1.598395e+00
  1.746729e+01    1.575141e+00
  1.757842e+01    1.550113e+00
  1.768955e+01    1.551767e+00
  1.780067e+01    1.515583e+00
  1.791180e+01    1.497286e+00
  1.802293e+01    1.508598e+00
  1.813406e+01    1.472238e+00
  1.824519e+01    1.468901e+00
  1.835632e+01    1.466925e+00
  1.846745e+01    1.415983e+00
  1.857858e+01    1.392604e+00
  1.868971e+01    1.391219e+00
  1.880084e+01    1.402826e+00
  1.891196e+01    1.373750e+00
  1.902309e+01    1.357903e+00
  1.913422e+01    1.356684e+00
  1.924535e+01    1.351175e+00
  1.935648e+01    1.334374e+00
  1.946761e+01    1.322116e+00
  1.957874e+01    1.307147e+00
  1.968987e+01    1.277177e+00
  1.980100e+01    1.303397e+00
  1.991213e+01    1.270724e+00
  2.002325e+01    1.249725e+00
  2.013438e+01    1.294373e+00
  2.024551e+01    1.241330e+00
  2.035664e+01    1.234626e+00
  2.046777e+01    1.231703e+00
  2.057890e+01    1.230828e+00
  2.069003e+01    1.192026e+00
  2.080116e+01    1.197801e+00
  2.091229e+01    1.232473e+00
  2.102342e+01    1.228775e+00
  2.113455e+01    1.208934e+00
  2.124567e+01    1.232523e+00
  2.135680e+01    1.281711e+00
  2.146793e+01    1.342505e+00
  2.157906e+01    1.603354e+00
  2.169019e+01    2.468284e+00
  2.180132e+01    5.821882e+00
  2.191245e+01    8.691297e+00
  2.202358e+01    3.526763e+00
  2.213471e+01    1.831884e+00
  2.224584e+01    1.365457e+00
  2.235696e+01    1.222123e+00
  2.246809e+01    1.160781e+00
  2.257922e+01    1.130389e+00
  2.269035e+01    1.070407e+00
  2.280148e+01    1.040481e+00
  2.291261e+01    1.022563e+00
  2.302374e+01    9.781056e-01
  2.313487e+01    9.805027e-01
  2.324600e+01    9.420598e-01
  2.335713e+01    9.583541e-01
  2.346825e+01    9.479865e-01
  2.357938e+01    9.338579e-01
  2.369051e+01    9.044955e-01
  2.380164e+01    9.126863e-01
  2.391277e+01    9.003806e-01
  2.402390e+01    8.696133e-01
  2.413503e+01    8.902861e-01
  2.424616e+01    8.688831e-01
  2.435729e+01    9.113171e-01
  2.446842e+01    9.079469e-01
  2.457954e+01    8.823760e-01
  2.469067e+01    8.674036e-01
  2.480180e+01    8.722165e-01
  2.491293e+01    8.871795e-01
  2.502406e+01    9.155303e-01
  2.513519e+01    8.881512e-01
  2.524632e+01    9.466487e-01
  2.535745e+01    9.662624e-01
  2.546858e+01    1.020940e+00
  2.557971e+01    1.152206e+00
  2.569083e+01    1.504141e+00
  2.580196e+01    2.809607e+00
  2.591309e+01    6.389548e+00
  2.602422e+01    5.225451e+00
  2.613535e+01    2.100810e+00
  2.624648e+01    1.320140e+00
  2.635761e+01    1.093002e+00
  2.646874e+01    1.038302e+00
  2.657987e+01    9.737090e-01
  2.669100e+01    9.706388e-01
  2.680212e+01    9.762852e-01
  2.691325e+01    9.974949e-01
  2.702438e+01    1.139572e+00
  2.713551e+01    1.736896e+00
  2.724664e+01    2.035994e+00
  2.735777e+01    1.262900e+00
  2.746890e+01    1.006810e+00
  2.758003e+01    9.143620e-01
  2.769116e+01    9.020705e-01
  2.780229e+01    8.898091e-01
  2.791342e+01    8.529543e-01
  2.802454e+01    8.583031e-01
  2.813567e+01    8.497340e-01
  2.824680e+01    8.457028e-01
  2.835793e+01    8.392353e-01
  2.846906e+01    8.213074e-01
  2.858019e+01    8.153316e-01
  2.869132e+01    8.379436e-01
  2.880245e+01    8.053520e-01
  2.891358e+01    8.355703e-01
  2.902471e+01    8.121710e-01
  2.913583e+01    8.136252e-01
  2.924696e+01    7.981125e-01
  2.935809e+01    7.843966e-01
  2.946922e+01    7.861814e-01
  2.958035e+01    7.686483e-01
  2.969148e+01    7.812850e-01
  2.980261e+01    7.831983e-01
  2.991374e+01    7.959102e-01
  3.002487e+01    7.890267e-01
  3.013600e+01    7.923521e-01
  3.024712e+01    7.888527e-01
  3.035825e+01    7.761872e-01
  3.046938e+01    7.709186e-01
  3.058051e+01    7.948048e-01
  3.069164e+01    7.792470e-01
  3.080277e+01    7.643124e-01
  3.091390e+01    7.785679e-01
  3.102503e+01    7.592664e-01
  3.113616e+01    7.697807e-01
  3.124729e+01    7.743524e-01
  3.135841e+01    8.034254e-01
  3.146954e+01    8.171341e-01
  3.158067e+01    8.455018e-01
  3.169180e+01    9.846516e-01
  3.180293e+01    1.458771e+00
  3.191406e+01    2.043200e+00
  3.202519e+01    1.309996e+00
  3.213632e+01    9.273030e-01
  3.224745e+01    8.194408e-01
  3.235858e+01    8.105735e-01
  3.246970e+01    7.696144e-01
  3.254908e+01    7.624937e-01