File: XRD/Reaction conditions/2024-07-27_003_Ru-CGO-ex_Reaction_dwell_000023_data_000145.dat
# == pyFAI calibration ==
# Distance Sample to Detector: 0.4 m
# PONI: 9.750e-02, 1.135e-01 m
# Rotations: -0.000175 0.000000 -0.000000 rad
#
# == Fit2d calibration ==
# Distance Sample-beamCenter: 400.000 mm
# Center: x=1514.000, y=1300.000 pix
# Tilt: 0.010 deg  TiltPlanRot: 0.010 deg
#
# Detector Detector	 Spline= None	 PixelSize= 7.500e-05, 7.500e-05 m
#    Detector has a mask: False
#    Detector has a dark current: False
#    detector has a flat field: False
#
# Wavelength: 6.888e-11 m
# Mask applied: user provided
# Dark current applied: False
# Flat field applied: False
# Polarization factor: 0.99
# Normalization factor: 1.0
# --> /home/myspot/data/2024_07_Rosario/Ru-CGO-ex/2024-07-27_003_Ru-CGO-ex_Reaction_dwell_000023_data_000145.dat
#       q_nm^-1             I
  2.003187e-02    0.000000e+00
  1.311609e-01    1.990194e-02
  2.422899e-01    4.819090e-02
  3.534189e-01    4.113056e-02
  4.645479e-01    3.074816e-02
  5.756770e-01    6.656250e-02
  6.868060e-01    2.962699e-02
  7.979350e-01    1.690657e-01
  9.090640e-01    6.165053e-01
  1.020193e+00    1.143173e+00
  1.131322e+00    1.454212e+00
  1.242451e+00    2.436591e+00
  1.353580e+00    2.829908e+00
  1.464709e+00    2.961922e+00
  1.575838e+00    3.226901e+00
  1.686967e+00    3.095692e+00
  1.798096e+00    3.004539e+00
  1.909225e+00    3.138184e+00
  2.020354e+00    3.039360e+00
  2.131483e+00    3.035314e+00
  2.242612e+00    3.134352e+00
  2.353741e+00    3.129867e+00
  2.464870e+00    3.007161e+00
  2.575999e+00    3.172302e+00
  2.687128e+00    3.280328e+00
  2.798257e+00    3.245691e+00
  2.909386e+00    3.232308e+00
  3.020515e+00    3.371862e+00
  3.131644e+00    3.404835e+00
  3.242773e+00    3.341511e+00
  3.353902e+00    3.464347e+00
  3.465031e+00    3.470080e+00
  3.576160e+00    3.428405e+00
  3.687289e+00    3.396373e+00
  3.798418e+00    3.418920e+00
  3.909547e+00    3.488232e+00
  4.020676e+00    3.562007e+00
  4.131806e+00    3.469205e+00
  4.242935e+00    3.585191e+00
  4.354064e+00    3.445102e+00
  4.465193e+00    3.641223e+00
  4.576322e+00    3.573254e+00
  4.687451e+00    3.620797e+00
  4.798580e+00    3.660915e+00
  4.909709e+00    3.676087e+00
  5.020838e+00    3.746763e+00
  5.131967e+00    3.661596e+00
  5.243096e+00    3.661570e+00
  5.354225e+00    3.611680e+00
  5.465354e+00    3.553375e+00
  5.576483e+00    3.663759e+00
  5.687612e+00    3.514966e+00
  5.798741e+00    3.517281e+00
  5.909870e+00    3.585478e+00
  6.020999e+00    3.477391e+00
  6.132128e+00    3.642423e+00
  6.243257e+00    3.549992e+00
  6.354386e+00    3.475161e+00
  6.465515e+00    3.549279e+00
  6.576644e+00    3.477239e+00
  6.687773e+00    3.616154e+00
  6.798902e+00    3.501343e+00
  6.910031e+00    3.495740e+00
  7.021160e+00    3.618540e+00
  7.132289e+00    3.578087e+00
  7.243418e+00    3.544030e+00
  7.354547e+00    3.515625e+00
  7.465676e+00    3.502077e+00
  7.576805e+00    3.458642e+00
  7.687934e+00    3.431777e+00
  7.799063e+00    3.473099e+00
  7.910192e+00    3.447454e+00
  8.021321e+00    3.472631e+00
  8.132450e+00    3.421240e+00
  8.243579e+00    3.416163e+00
  8.354708e+00    3.400422e+00
  8.465837e+00    3.333805e+00
  8.576966e+00    3.358576e+00
  8.688095e+00    3.295962e+00
  8.799224e+00    3.314613e+00
  8.910353e+00    3.249410e+00
  9.021482e+00    3.265743e+00
  9.132611e+00    3.282723e+00
  9.243740e+00    3.246964e+00
  9.354869e+00    3.159287e+00
  9.465998e+00    3.246040e+00
  9.577127e+00    3.240543e+00
  9.688256e+00    3.096435e+00
  9.799385e+00    3.078366e+00
  9.910514e+00    3.132929e+00
  1.002164e+01    3.122885e+00
  1.013277e+01    3.145236e+00
  1.024390e+01    3.066537e+00
  1.035503e+01    3.048539e+00
  1.046616e+01    3.001192e+00
  1.057729e+01    2.953755e+00
  1.068842e+01    2.956778e+00
  1.079955e+01    2.963658e+00
  1.091068e+01    2.893015e+00
  1.102180e+01    2.859500e+00
  1.113293e+01    2.899616e+00
  1.124406e+01    2.873734e+00
  1.135519e+01    2.832002e+00
  1.146632e+01    2.839936e+00
  1.157745e+01    2.765519e+00
  1.168858e+01    2.770279e+00
  1.179971e+01    2.755416e+00
  1.191084e+01    2.716136e+00
  1.202197e+01    2.748489e+00
  1.213309e+01    2.723687e+00
  1.224422e+01    2.725391e+00
  1.235535e+01    2.706964e+00
  1.246648e+01    2.679506e+00
  1.257761e+01    2.769085e+00
  1.268874e+01    2.788619e+00
  1.279987e+01    2.975682e+00
  1.291100e+01    3.626783e+00
  1.302213e+01    6.604648e+00
  1.313326e+01    1.463315e+01
  1.324438e+01    1.068106e+01
  1.335551e+01    4.428451e+00
  1.346664e+01    3.121694e+00
  1.357777e+01    2.689335e+00
  1.368890e+01    2.545413e+00
  1.380003e+01    2.464336e+00
  1.391116e+01    2.456487e+00
  1.402229e+01    2.335390e+00
  1.413342e+01    2.336236e+00
  1.424455e+01    2.252906e+00
  1.435568e+01    2.216473e+00
  1.446680e+01    2.204215e+00
  1.457793e+01    2.194892e+00
  1.468906e+01    2.174479e+00
  1.480019e+01    2.193097e+00
  1.491132e+01    2.240935e+00
  1.502245e+01    2.493984e+00
  1.513358e+01    3.842965e+00
  1.524471e+01    5.704592e+00
  1.535584e+01    3.799649e+00
  1.546697e+01    2.385186e+00
  1.557809e+01    2.085708e+00
  1.568922e+01    1.989253e+00
  1.580035e+01    1.939077e+00
  1.591148e+01    1.915024e+00
  1.602261e+01    1.855294e+00
  1.613374e+01    1.842532e+00
  1.624487e+01    1.827000e+00
  1.635600e+01    1.750849e+00
  1.646713e+01    1.772184e+00
  1.657826e+01    1.773805e+00
  1.668938e+01    1.739137e+00
  1.680051e+01    1.686608e+00
  1.691164e+01    1.680622e+00
  1.702277e+01    1.645744e+00
  1.713390e+01    1.652596e+00
  1.724503e+01    1.611502e+00
  1.735616e+01    1.606801e+00
  1.746729e+01    1.576104e+00
  1.757842e+01    1.548856e+00
  1.768955e+01    1.532387e+00
  1.780067e+01    1.540194e+00
  1.791180e+01    1.515353e+00
  1.802293e+01    1.462366e+00
  1.813406e+01    1.467971e+00
  1.824519e+01    1.469281e+00
  1.835632e+01    1.446379e+00
  1.846745e+01    1.456195e+00
  1.857858e+01    1.441479e+00
  1.868971e+01    1.404689e+00
  1.880084e+01    1.412157e+00
  1.891196e+01    1.407741e+00
  1.902309e+01    1.384782e+00
  1.913422e+01    1.369425e+00
  1.924535e+01    1.319681e+00
  1.935648e+01    1.349236e+00
  1.946761e+01    1.314548e+00
  1.957874e+01    1.349319e+00
  1.968987e+01    1.328509e+00
  1.980100e+01    1.287165e+00
  1.991213e+01    1.256592e+00
  2.002325e+01    1.248339e+00
  2.013438e+01    1.256101e+00
  2.024551e+01    1.240755e+00
  2.035664e+01    1.250069e+00
  2.046777e+01    1.258343e+00
  2.057890e+01    1.217547e+00
  2.069003e+01    1.209912e+00
  2.080116e+01    1.234101e+00
  2.091229e+01    1.228272e+00
  2.102342e+01    1.224778e+00
  2.113455e+01    1.232016e+00
  2.124567e+01    1.265386e+00
  2.135680e+01    1.298363e+00
  2.146793e+01    1.360230e+00
  2.157906e+01    1.616478e+00
  2.169019e+01    2.492651e+00
  2.180132e+01    5.762529e+00
  2.191245e+01    8.735515e+00
  2.202358e+01    3.661574e+00
  2.213471e+01    1.878033e+00
  2.224584e+01    1.430073e+00
  2.235696e+01    1.225738e+00
  2.246809e+01    1.161604e+00
  2.257922e+01    1.108886e+00
  2.269035e+01    1.080674e+00
  2.280148e+01    1.051170e+00
  2.291261e+01    1.026028e+00
  2.302374e+01    1.027573e+00
  2.313487e+01    9.835106e-01
  2.324600e+01    9.939456e-01
  2.335713e+01    9.790948e-01
  2.346825e+01    9.611743e-01
  2.357938e+01    9.677218e-01
  2.369051e+01    9.441130e-01
  2.380164e+01    9.297420e-01
  2.391277e+01    9.082788e-01
  2.402390e+01    8.707742e-01
  2.413503e+01    8.852629e-01
  2.424616e+01    8.692720e-01
  2.435729e+01    8.867532e-01
  2.446842e+01    9.139557e-01
  2.457954e+01    8.912446e-01
  2.469067e+01    8.881858e-01
  2.480180e+01    9.007338e-01
  2.491293e+01    8.897236e-01
  2.502406e+01    8.917211e-01
  2.513519e+01    9.271835e-01
  2.524632e+01    9.468811e-01
  2.535745e+01    9.612983e-01
  2.546858e+01    9.952013e-01
  2.557971e+01    1.158744e+00
  2.569083e+01    1.477071e+00
  2.580196e+01    2.811722e+00
  2.591309e+01    6.311219e+00
  2.602422e+01    5.318933e+00
  2.613535e+01    2.151058e+00
  2.624648e+01    1.334410e+00
  2.635761e+01    1.103909e+00
  2.646874e+01    1.031804e+00
  2.657987e+01    9.889007e-01
  2.669100e+01    9.776800e-01
  2.680212e+01    9.738412e-01
  2.691325e+01    1.013898e+00
  2.702438e+01    1.134915e+00
  2.713551e+01    1.690331e+00
  2.724664e+01    2.096691e+00
  2.735777e+01    1.287451e+00
  2.746890e+01    1.009796e+00
  2.758003e+01    9.339525e-01
  2.769116e+01    9.106849e-01
  2.780229e+01    8.781768e-01
  2.791342e+01    8.875971e-01
  2.802454e+01    8.806161e-01
  2.813567e+01    8.494181e-01
  2.824680e+01    8.363967e-01
  2.835793e+01    8.422189e-01
  2.846906e+01    8.223810e-01
  2.858019e+01    8.292265e-01
  2.869132e+01    8.225238e-01
  2.880245e+01    8.181931e-01
  2.891358e+01    8.234579e-01
  2.902471e+01    8.038296e-01
  2.913583e+01    8.243755e-01
  2.924696e+01    7.898925e-01
  2.935809e+01    8.109350e-01
  2.946922e+01    8.121244e-01
  2.958035e+01    8.111020e-01
  2.969148e+01    8.045915e-01
  2.980261e+01    7.857293e-01
  2.991374e+01    7.894140e-01
  3.002487e+01    7.993477e-01
  3.013600e+01    8.128663e-01
  3.024712e+01    7.879413e-01
  3.035825e+01    7.951354e-01
  3.046938e+01    7.931778e-01
  3.058051e+01    7.689173e-01
  3.069164e+01    7.995874e-01
  3.080277e+01    7.811844e-01
  3.091390e+01    7.907097e-01
  3.102503e+01    7.831832e-01
  3.113616e+01    7.761638e-01
  3.124729e+01    7.988511e-01
  3.135841e+01    8.093483e-01
  3.146954e+01    8.337524e-01
  3.158067e+01    8.417503e-01
  3.169180e+01    1.004859e+00
  3.180293e+01    1.418081e+00
  3.191406e+01    2.025596e+00
  3.202519e+01    1.298668e+00
  3.213632e+01    9.423294e-01
  3.224745e+01    8.381783e-01
  3.235858e+01    7.945166e-01
  3.246970e+01    8.242105e-01
  3.254908e+01    7.771437e-01