File: XRD/Reaction conditions/2024-07-27_003_Ru-CGO-ex_Reaction_dwell_000023_data_000100.dat
# == pyFAI calibration ==
# Distance Sample to Detector: 0.4 m
# PONI: 9.750e-02, 1.135e-01 m
# Rotations: -0.000175 0.000000 -0.000000 rad
#
# == Fit2d calibration ==
# Distance Sample-beamCenter: 400.000 mm
# Center: x=1514.000, y=1300.000 pix
# Tilt: 0.010 deg  TiltPlanRot: 0.010 deg
#
# Detector Detector	 Spline= None	 PixelSize= 7.500e-05, 7.500e-05 m
#    Detector has a mask: False
#    Detector has a dark current: False
#    detector has a flat field: False
#
# Wavelength: 6.888e-11 m
# Mask applied: user provided
# Dark current applied: False
# Flat field applied: False
# Polarization factor: 0.99
# Normalization factor: 1.0
# --> /home/myspot/data/2024_07_Rosario/Ru-CGO-ex/2024-07-27_003_Ru-CGO-ex_Reaction_dwell_000023_data_000100.dat
#       q_nm^-1             I
  2.003187e-02    1.424646e-01
  1.311609e-01    3.384869e-02
  2.422899e-01    2.729110e-02
  3.534189e-01    4.184877e-02
  4.645479e-01    2.976546e-02
  5.756770e-01    3.300218e-02
  6.868060e-01    4.470563e-02
  7.979350e-01    1.631554e-01
  9.090640e-01    6.745467e-01
  1.020193e+00    1.301237e+00
  1.131322e+00    1.708797e+00
  1.242451e+00    2.295870e+00
  1.353580e+00    2.821573e+00
  1.464709e+00    2.964682e+00
  1.575838e+00    3.241880e+00
  1.686967e+00    3.029836e+00
  1.798096e+00    3.077278e+00
  1.909225e+00    3.134603e+00
  2.020354e+00    2.939318e+00
  2.131483e+00    3.171706e+00
  2.242612e+00    3.129439e+00
  2.353741e+00    3.133313e+00
  2.464870e+00    3.129897e+00
  2.575999e+00    3.308484e+00
  2.687128e+00    3.305783e+00
  2.798257e+00    3.267192e+00
  2.909386e+00    3.238421e+00
  3.020515e+00    3.494004e+00
  3.131644e+00    3.412347e+00
  3.242773e+00    3.460232e+00
  3.353902e+00    3.544764e+00
  3.465031e+00    3.485001e+00
  3.576160e+00    3.409287e+00
  3.687289e+00    3.324946e+00
  3.798418e+00    3.445789e+00
  3.909547e+00    3.486796e+00
  4.020676e+00    3.583843e+00
  4.131806e+00    3.589139e+00
  4.242935e+00    3.503278e+00
  4.354064e+00    3.594423e+00
  4.465193e+00    3.564392e+00
  4.576322e+00    3.673744e+00
  4.687451e+00    3.596435e+00
  4.798580e+00    3.600302e+00
  4.909709e+00    3.648806e+00
  5.020838e+00    3.705024e+00
  5.131967e+00    3.659792e+00
  5.243096e+00    3.613776e+00
  5.354225e+00    3.693489e+00
  5.465354e+00    3.629365e+00
  5.576483e+00    3.595765e+00
  5.687612e+00    3.604278e+00
  5.798741e+00    3.637803e+00
  5.909870e+00    3.541119e+00
  6.020999e+00    3.582093e+00
  6.132128e+00    3.630454e+00
  6.243257e+00    3.676769e+00
  6.354386e+00    3.540295e+00
  6.465515e+00    3.541548e+00
  6.576644e+00    3.535220e+00
  6.687773e+00    3.487641e+00
  6.798902e+00    3.555335e+00
  6.910031e+00    3.562467e+00
  7.021160e+00    3.456794e+00
  7.132289e+00    3.548583e+00
  7.243418e+00    3.434273e+00
  7.354547e+00    3.419317e+00
  7.465676e+00    3.458105e+00
  7.576805e+00    3.380657e+00
  7.687934e+00    3.401761e+00
  7.799063e+00    3.413123e+00
  7.910192e+00    3.453857e+00
  8.021321e+00    3.441668e+00
  8.132450e+00    3.400182e+00
  8.243579e+00    3.521080e+00
  8.354708e+00    3.397629e+00
  8.465837e+00    3.397228e+00
  8.576966e+00    3.406907e+00
  8.688095e+00    3.411432e+00
  8.799224e+00    3.295764e+00
  8.910353e+00    3.296992e+00
  9.021482e+00    3.281067e+00
  9.132611e+00    3.303095e+00
  9.243740e+00    3.222225e+00
  9.354869e+00    3.226269e+00
  9.465998e+00    3.284891e+00
  9.577127e+00    3.256154e+00
  9.688256e+00    3.220412e+00
  9.799385e+00    3.185249e+00
  9.910514e+00    3.102028e+00
  1.002164e+01    3.103436e+00
  1.013277e+01    3.033747e+00
  1.024390e+01    3.111581e+00
  1.035503e+01    3.116022e+00
  1.046616e+01    3.008861e+00
  1.057729e+01    2.977517e+00
  1.068842e+01    2.978302e+00
  1.079955e+01    2.971764e+00
  1.091068e+01    2.903676e+00
  1.102180e+01    2.928553e+00
  1.113293e+01    2.932591e+00
  1.124406e+01    2.868009e+00
  1.135519e+01    2.835721e+00
  1.146632e+01    2.842630e+00
  1.157745e+01    2.786623e+00
  1.168858e+01    2.802719e+00
  1.179971e+01    2.743844e+00
  1.191084e+01    2.703930e+00
  1.202197e+01    2.749462e+00
  1.213309e+01    2.690419e+00
  1.224422e+01    2.709138e+00
  1.235535e+01    2.733211e+00
  1.246648e+01    2.719181e+00
  1.257761e+01    2.740496e+00
  1.268874e+01    2.816130e+00
  1.279987e+01    2.950679e+00
  1.291100e+01    3.603119e+00
  1.302213e+01    6.680462e+00
  1.313326e+01    1.481056e+01
  1.324438e+01    1.072988e+01
  1.335551e+01    4.438297e+00
  1.346664e+01    3.139530e+00
  1.357777e+01    2.770562e+00
  1.368890e+01    2.564805e+00
  1.380003e+01    2.469144e+00
  1.391116e+01    2.380164e+00
  1.402229e+01    2.388791e+00
  1.413342e+01    2.297025e+00
  1.424455e+01    2.258608e+00
  1.435568e+01    2.279513e+00
  1.446680e+01    2.252829e+00
  1.457793e+01    2.213109e+00
  1.468906e+01    2.230975e+00
  1.480019e+01    2.219245e+00
  1.491132e+01    2.240111e+00
  1.502245e+01    2.462010e+00
  1.513358e+01    3.784837e+00
  1.524471e+01    5.747158e+00
  1.535584e+01    3.728928e+00
  1.546697e+01    2.446032e+00
  1.557809e+01    2.131289e+00
  1.568922e+01    1.971005e+00
  1.580035e+01    1.945993e+00
  1.591148e+01    1.952847e+00
  1.602261e+01    1.885175e+00
  1.613374e+01    1.825587e+00
  1.624487e+01    1.830964e+00
  1.635600e+01    1.773477e+00
  1.646713e+01    1.774100e+00
  1.657826e+01    1.712599e+00
  1.668938e+01    1.717580e+00
  1.680051e+01    1.736205e+00
  1.691164e+01    1.688595e+00
  1.702277e+01    1.666646e+00
  1.713390e+01    1.662902e+00
  1.724503e+01    1.553473e+00
  1.735616e+01    1.584166e+00
  1.746729e+01    1.614188e+00
  1.757842e+01    1.557099e+00
  1.768955e+01    1.527335e+00
  1.780067e+01    1.531329e+00
  1.791180e+01    1.535096e+00
  1.802293e+01    1.500503e+00
  1.813406e+01    1.474046e+00
  1.824519e+01    1.519550e+00
  1.835632e+01    1.471223e+00
  1.846745e+01    1.439063e+00
  1.857858e+01    1.439430e+00
  1.868971e+01    1.405819e+00
  1.880084e+01    1.388847e+00
  1.891196e+01    1.401252e+00
  1.902309e+01    1.392954e+00
  1.913422e+01    1.381273e+00
  1.924535e+01    1.369374e+00
  1.935648e+01    1.374936e+00
  1.946761e+01    1.366427e+00
  1.957874e+01    1.314594e+00
  1.968987e+01    1.305188e+00
  1.980100e+01    1.291637e+00
  1.991213e+01    1.327066e+00
  2.002325e+01    1.289893e+00
  2.013438e+01    1.281702e+00
  2.024551e+01    1.272397e+00
  2.035664e+01    1.236528e+00
  2.046777e+01    1.240278e+00
  2.057890e+01    1.235986e+00
  2.069003e+01    1.219677e+00
  2.080116e+01    1.249237e+00
  2.091229e+01    1.239801e+00
  2.102342e+01    1.196734e+00
  2.113455e+01    1.214592e+00
  2.124567e+01    1.256580e+00
  2.135680e+01    1.270514e+00
  2.146793e+01    1.368143e+00
  2.157906e+01    1.653848e+00
  2.169019e+01    2.500779e+00
  2.180132e+01    5.808114e+00
  2.191245e+01    8.725400e+00
  2.202358e+01    3.656135e+00
  2.213471e+01    1.857270e+00
  2.224584e+01    1.401248e+00
  2.235696e+01    1.249530e+00
  2.246809e+01    1.152643e+00
  2.257922e+01    1.092103e+00
  2.269035e+01    1.080684e+00
  2.280148e+01    1.049548e+00
  2.291261e+01    1.038730e+00
  2.302374e+01    1.011114e+00
  2.313487e+01    1.006294e+00
  2.324600e+01    9.774667e-01
  2.335713e+01    9.959158e-01
  2.346825e+01    9.570960e-01
  2.357938e+01    9.575149e-01
  2.369051e+01    9.344633e-01
  2.380164e+01    9.382482e-01
  2.391277e+01    9.175702e-01
  2.402390e+01    8.843930e-01
  2.413503e+01    9.181611e-01
  2.424616e+01    8.735536e-01
  2.435729e+01    8.918920e-01
  2.446842e+01    8.933076e-01
  2.457954e+01    8.860521e-01
  2.469067e+01    8.874655e-01
  2.480180e+01    8.726423e-01
  2.491293e+01    8.861729e-01
  2.502406e+01    9.208975e-01
  2.513519e+01    8.981723e-01
  2.524632e+01    9.620171e-01
  2.535745e+01    9.721956e-01
  2.546858e+01    1.019189e+00
  2.557971e+01    1.146444e+00
  2.569083e+01    1.500963e+00
  2.580196e+01    2.761484e+00
  2.591309e+01    6.386268e+00
  2.602422e+01    5.291185e+00
  2.613535e+01    2.105768e+00
  2.624648e+01    1.356778e+00
  2.635761e+01    1.067626e+00
  2.646874e+01    1.023050e+00
  2.657987e+01    9.899765e-01
  2.669100e+01    9.611189e-01
  2.680212e+01    9.815241e-01
  2.691325e+01    1.012976e+00
  2.702438e+01    1.127117e+00
  2.713551e+01    1.744221e+00
  2.724664e+01    2.088543e+00
  2.735777e+01    1.300613e+00
  2.746890e+01    1.005442e+00
  2.758003e+01    9.499826e-01
  2.769116e+01    9.179649e-01
  2.780229e+01    8.753873e-01
  2.791342e+01    8.601408e-01
  2.802454e+01    8.680896e-01
  2.813567e+01    8.663360e-01
  2.824680e+01    8.485442e-01
  2.835793e+01    8.586984e-01
  2.846906e+01    8.397000e-01
  2.858019e+01    8.459197e-01
  2.869132e+01    8.227698e-01
  2.880245e+01    8.288202e-01
  2.891358e+01    8.243107e-01
  2.902471e+01    8.201305e-01
  2.913583e+01    8.126110e-01
  2.924696e+01    8.025753e-01
  2.935809e+01    8.297272e-01
  2.946922e+01    7.880191e-01
  2.958035e+01    8.021683e-01
  2.969148e+01    8.135749e-01
  2.980261e+01    8.062014e-01
  2.991374e+01    7.732235e-01
  3.002487e+01    8.228792e-01
  3.013600e+01    7.883043e-01
  3.024712e+01    7.928821e-01
  3.035825e+01    7.774127e-01
  3.046938e+01    7.873002e-01
  3.058051e+01    7.850538e-01
  3.069164e+01    7.879544e-01
  3.080277e+01    8.022196e-01
  3.091390e+01    8.019526e-01
  3.102503e+01    7.670711e-01
  3.113616e+01    7.964198e-01
  3.124729e+01    8.077253e-01
  3.135841e+01    7.963023e-01
  3.146954e+01    8.304937e-01
  3.158067e+01    8.541213e-01
  3.169180e+01    9.346910e-01
  3.180293e+01    1.443417e+00
  3.191406e+01    2.067855e+00
  3.202519e+01    1.349364e+00
  3.213632e+01    9.379934e-01
  3.224745e+01    8.183312e-01
  3.235858e+01    7.968585e-01
  3.246970e+01    7.884310e-01
  3.254908e+01    7.661861e-01