File: XRD/Reaction conditions/2024-07-27_003_Ru-CGO-ex_Reaction_dwell_000023_data_000015.dat
# == pyFAI calibration ==
# Distance Sample to Detector: 0.4 m
# PONI: 9.750e-02, 1.135e-01 m
# Rotations: -0.000175 0.000000 -0.000000 rad
#
# == Fit2d calibration ==
# Distance Sample-beamCenter: 400.000 mm
# Center: x=1514.000, y=1300.000 pix
# Tilt: 0.010 deg  TiltPlanRot: 0.010 deg
#
# Detector Detector	 Spline= None	 PixelSize= 7.500e-05, 7.500e-05 m
#    Detector has a mask: False
#    Detector has a dark current: False
#    detector has a flat field: False
#
# Wavelength: 6.888e-11 m
# Mask applied: user provided
# Dark current applied: False
# Flat field applied: False
# Polarization factor: 0.99
# Normalization factor: 1.0
# --> /home/myspot/data/2024_07_Rosario/Ru-CGO-ex/2024-07-27_003_Ru-CGO-ex_Reaction_dwell_000023_data_000015.dat
#       q_nm^-1             I
  2.003187e-02    0.000000e+00
  1.311609e-01    8.107503e-02
  2.422899e-01    7.644662e-02
  3.534189e-01    3.140793e-02
  4.645479e-01    3.215823e-02
  5.756770e-01    2.430553e-02
  6.868060e-01    4.223684e-02
  7.979350e-01    1.979726e-01
  9.090640e-01    6.351123e-01
  1.020193e+00    1.256416e+00
  1.131322e+00    1.645684e+00
  1.242451e+00    2.363058e+00
  1.353580e+00    2.808047e+00
  1.464709e+00    2.957741e+00
  1.575838e+00    3.142815e+00
  1.686967e+00    3.028644e+00
  1.798096e+00    3.130642e+00
  1.909225e+00    3.071877e+00
  2.020354e+00    3.103871e+00
  2.131483e+00    3.138921e+00
  2.242612e+00    3.217789e+00
  2.353741e+00    3.041258e+00
  2.464870e+00    3.068653e+00
  2.575999e+00    3.294875e+00
  2.687128e+00    3.251456e+00
  2.798257e+00    3.183421e+00
  2.909386e+00    3.355412e+00
  3.020515e+00    3.311071e+00
  3.131644e+00    3.408638e+00
  3.242773e+00    3.501781e+00
  3.353902e+00    3.427331e+00
  3.465031e+00    3.325876e+00
  3.576160e+00    3.554606e+00
  3.687289e+00    3.448514e+00
  3.798418e+00    3.452630e+00
  3.909547e+00    3.523478e+00
  4.020676e+00    3.494758e+00
  4.131806e+00    3.537823e+00
  4.242935e+00    3.616785e+00
  4.354064e+00    3.562560e+00
  4.465193e+00    3.515800e+00
  4.576322e+00    3.699067e+00
  4.687451e+00    3.529726e+00
  4.798580e+00    3.625867e+00
  4.909709e+00    3.691449e+00
  5.020838e+00    3.713281e+00
  5.131967e+00    3.755666e+00
  5.243096e+00    3.627867e+00
  5.354225e+00    3.710363e+00
  5.465354e+00    3.562285e+00
  5.576483e+00    3.582630e+00
  5.687612e+00    3.629893e+00
  5.798741e+00    3.528039e+00
  5.909870e+00    3.521726e+00
  6.020999e+00    3.541152e+00
  6.132128e+00    3.529361e+00
  6.243257e+00    3.609344e+00
  6.354386e+00    3.584764e+00
  6.465515e+00    3.506298e+00
  6.576644e+00    3.492685e+00
  6.687773e+00    3.562784e+00
  6.798902e+00    3.570595e+00
  6.910031e+00    3.480505e+00
  7.021160e+00    3.488500e+00
  7.132289e+00    3.489321e+00
  7.243418e+00    3.469737e+00
  7.354547e+00    3.472262e+00
  7.465676e+00    3.535163e+00
  7.576805e+00    3.485304e+00
  7.687934e+00    3.476090e+00
  7.799063e+00    3.465824e+00
  7.910192e+00    3.366825e+00
  8.021321e+00    3.406185e+00
  8.132450e+00    3.450912e+00
  8.243579e+00    3.536837e+00
  8.354708e+00    3.436627e+00
  8.465837e+00    3.469167e+00
  8.576966e+00    3.324825e+00
  8.688095e+00    3.309306e+00
  8.799224e+00    3.351157e+00
  8.910353e+00    3.331821e+00
  9.021482e+00    3.298687e+00
  9.132611e+00    3.204522e+00
  9.243740e+00    3.253165e+00
  9.354869e+00    3.198282e+00
  9.465998e+00    3.197156e+00
  9.577127e+00    3.215425e+00
  9.688256e+00    3.218296e+00
  9.799385e+00    3.185578e+00
  9.910514e+00    3.160461e+00
  1.002164e+01    3.113706e+00
  1.013277e+01    3.001697e+00
  1.024390e+01    3.050442e+00
  1.035503e+01    3.073765e+00
  1.046616e+01    3.016653e+00
  1.057729e+01    3.060696e+00
  1.068842e+01    2.969433e+00
  1.079955e+01    2.944176e+00
  1.091068e+01    2.856452e+00
  1.102180e+01    2.972050e+00
  1.113293e+01    2.860902e+00
  1.124406e+01    2.848639e+00
  1.135519e+01    2.833344e+00
  1.146632e+01    2.829235e+00
  1.157745e+01    2.779838e+00
  1.168858e+01    2.781871e+00
  1.179971e+01    2.724401e+00
  1.191084e+01    2.708319e+00
  1.202197e+01    2.735321e+00
  1.213309e+01    2.714460e+00
  1.224422e+01    2.652073e+00
  1.235535e+01    2.690540e+00
  1.246648e+01    2.707809e+00
  1.257761e+01    2.697962e+00
  1.268874e+01    2.849851e+00
  1.279987e+01    3.016188e+00
  1.291100e+01    3.703282e+00
  1.302213e+01    6.776153e+00
  1.313326e+01    1.491584e+01
  1.324438e+01    1.063182e+01
  1.335551e+01    4.455460e+00
  1.346664e+01    3.215143e+00
  1.357777e+01    2.769439e+00
  1.368890e+01    2.578172e+00
  1.380003e+01    2.497266e+00
  1.391116e+01    2.425008e+00
  1.402229e+01    2.317297e+00
  1.413342e+01    2.294610e+00
  1.424455e+01    2.299159e+00
  1.435568e+01    2.228358e+00
  1.446680e+01    2.250705e+00
  1.457793e+01    2.220807e+00
  1.468906e+01    2.233972e+00
  1.480019e+01    2.217412e+00
  1.491132e+01    2.191169e+00
  1.502245e+01    2.523983e+00
  1.513358e+01    3.798442e+00
  1.524471e+01    5.774665e+00
  1.535584e+01    3.746805e+00
  1.546697e+01    2.422150e+00
  1.557809e+01    2.136653e+00
  1.568922e+01    1.992551e+00
  1.580035e+01    1.936775e+00
  1.591148e+01    1.928269e+00
  1.602261e+01    1.871398e+00
  1.613374e+01    1.820197e+00
  1.624487e+01    1.824153e+00
  1.635600e+01    1.789002e+00
  1.646713e+01    1.769083e+00
  1.657826e+01    1.746424e+00
  1.668938e+01    1.713580e+00
  1.680051e+01    1.724972e+00
  1.691164e+01    1.693966e+00
  1.702277e+01    1.670388e+00
  1.713390e+01    1.659773e+00
  1.724503e+01    1.629628e+00
  1.735616e+01    1.626730e+00
  1.746729e+01    1.604102e+00
  1.757842e+01    1.581809e+00
  1.768955e+01    1.573842e+00
  1.780067e+01    1.542563e+00
  1.791180e+01    1.522606e+00
  1.802293e+01    1.528424e+00
  1.813406e+01    1.485812e+00
  1.824519e+01    1.478638e+00
  1.835632e+01    1.479972e+00
  1.846745e+01    1.427164e+00
  1.857858e+01    1.445831e+00
  1.868971e+01    1.418456e+00
  1.880084e+01    1.395772e+00
  1.891196e+01    1.377071e+00
  1.902309e+01    1.380815e+00
  1.913422e+01    1.349758e+00
  1.924535e+01    1.356539e+00
  1.935648e+01    1.369055e+00
  1.946761e+01    1.343616e+00
  1.957874e+01    1.309942e+00
  1.968987e+01    1.341014e+00
  1.980100e+01    1.311092e+00
  1.991213e+01    1.296481e+00
  2.002325e+01    1.279067e+00
  2.013438e+01    1.264231e+00
  2.024551e+01    1.258635e+00
  2.035664e+01    1.254907e+00
  2.046777e+01    1.221818e+00
  2.057890e+01    1.249189e+00
  2.069003e+01    1.233294e+00
  2.080116e+01    1.223701e+00
  2.091229e+01    1.258871e+00
  2.102342e+01    1.235705e+00
  2.113455e+01    1.241822e+00
  2.124567e+01    1.233738e+00
  2.135680e+01    1.279281e+00
  2.146793e+01    1.384649e+00
  2.157906e+01    1.637624e+00
  2.169019e+01    2.501762e+00
  2.180132e+01    5.897473e+00
  2.191245e+01    8.691846e+00
  2.202358e+01    3.616816e+00
  2.213471e+01    1.875797e+00
  2.224584e+01    1.393847e+00
  2.235696e+01    1.238064e+00
  2.246809e+01    1.191667e+00
  2.257922e+01    1.100730e+00
  2.269035e+01    1.114697e+00
  2.280148e+01    1.062208e+00
  2.291261e+01    1.057318e+00
  2.302374e+01    1.019315e+00
  2.313487e+01    9.993871e-01
  2.324600e+01    9.772863e-01
  2.335713e+01    9.744126e-01
  2.346825e+01    9.769627e-01
  2.357938e+01    9.549201e-01
  2.369051e+01    9.631534e-01
  2.380164e+01    9.307715e-01
  2.391277e+01    9.298832e-01
  2.402390e+01    9.200545e-01
  2.413503e+01    9.037932e-01
  2.424616e+01    8.943508e-01
  2.435729e+01    8.843272e-01
  2.446842e+01    8.817564e-01
  2.457954e+01    8.893296e-01
  2.469067e+01    9.126945e-01
  2.480180e+01    8.935380e-01
  2.491293e+01    8.896865e-01
  2.502406e+01    9.063475e-01
  2.513519e+01    8.927403e-01
  2.524632e+01    9.458768e-01
  2.535745e+01    9.716987e-01
  2.546858e+01    1.039001e+00
  2.557971e+01    1.149643e+00
  2.569083e+01    1.529526e+00
  2.580196e+01    2.843824e+00
  2.591309e+01    6.361099e+00
  2.602422e+01    5.262453e+00
  2.613535e+01    2.117166e+00
  2.624648e+01    1.325398e+00
  2.635761e+01    1.106862e+00
  2.646874e+01    1.023845e+00
  2.657987e+01    9.940272e-01
  2.669100e+01    9.708381e-01
  2.680212e+01    9.444833e-01
  2.691325e+01    1.004563e+00
  2.702438e+01    1.143180e+00
  2.713551e+01    1.730239e+00
  2.724664e+01    2.095657e+00
  2.735777e+01    1.260142e+00
  2.746890e+01    1.025545e+00
  2.758003e+01    9.445604e-01
  2.769116e+01    8.947403e-01
  2.780229e+01    8.594177e-01
  2.791342e+01    8.672408e-01
  2.802454e+01    8.544221e-01
  2.813567e+01    8.570462e-01
  2.824680e+01    8.484505e-01
  2.835793e+01    8.308838e-01
  2.846906e+01    8.494542e-01
  2.858019e+01    8.391227e-01
  2.869132e+01    8.109822e-01
  2.880245e+01    8.237253e-01
  2.891358e+01    8.160622e-01
  2.902471e+01    8.286182e-01
  2.913583e+01    8.011190e-01
  2.924696e+01    8.006247e-01
  2.935809e+01    8.038994e-01
  2.946922e+01    8.015542e-01
  2.958035e+01    8.198020e-01
  2.969148e+01    8.062388e-01
  2.980261e+01    7.972216e-01
  2.991374e+01    7.895125e-01
  3.002487e+01    8.050338e-01
  3.013600e+01    7.947115e-01
  3.024712e+01    7.744857e-01
  3.035825e+01    7.782661e-01
  3.046938e+01    7.789998e-01
  3.058051e+01    7.776051e-01
  3.069164e+01    7.872211e-01
  3.080277e+01    7.932353e-01
  3.091390e+01    7.780000e-01
  3.102503e+01    7.981256e-01
  3.113616e+01    8.023041e-01
  3.124729e+01    7.919655e-01
  3.135841e+01    8.018572e-01
  3.146954e+01    8.298134e-01
  3.158067e+01    8.444149e-01
  3.169180e+01    9.973512e-01
  3.180293e+01    1.464293e+00
  3.191406e+01    2.043732e+00
  3.202519e+01    1.306029e+00
  3.213632e+01    9.263876e-01
  3.224745e+01    8.270149e-01
  3.235858e+01    7.924780e-01
  3.246970e+01    8.071263e-01
  3.254908e+01    7.766802e-01