File: XRD/Reaction conditions/2024-07-27_003_Ru-CGO-ex_Reaction_dwell_000023_data_000151.dat
# == pyFAI calibration ==
# Distance Sample to Detector: 0.4 m
# PONI: 9.750e-02, 1.135e-01 m
# Rotations: -0.000175 0.000000 -0.000000 rad
#
# == Fit2d calibration ==
# Distance Sample-beamCenter: 400.000 mm
# Center: x=1514.000, y=1300.000 pix
# Tilt: 0.010 deg  TiltPlanRot: 0.010 deg
#
# Detector Detector	 Spline= None	 PixelSize= 7.500e-05, 7.500e-05 m
#    Detector has a mask: False
#    Detector has a dark current: False
#    detector has a flat field: False
#
# Wavelength: 6.888e-11 m
# Mask applied: user provided
# Dark current applied: False
# Flat field applied: False
# Polarization factor: 0.99
# Normalization factor: 1.0
# --> /home/myspot/data/2024_07_Rosario/Ru-CGO-ex/2024-07-27_003_Ru-CGO-ex_Reaction_dwell_000023_data_000151.dat
#       q_nm^-1             I
  2.003187e-02    0.000000e+00
  1.311609e-01    5.859824e-02
  2.422899e-01    9.378976e-02
  3.534189e-01    5.249166e-02
  4.645479e-01    4.801528e-02
  5.756770e-01    4.965527e-02
  6.868060e-01    3.184688e-02
  7.979350e-01    1.760478e-01
  9.090640e-01    7.289010e-01
  1.020193e+00    1.312474e+00
  1.131322e+00    1.629014e+00
  1.242451e+00    2.365584e+00
  1.353580e+00    2.836201e+00
  1.464709e+00    3.083871e+00
  1.575838e+00    3.171266e+00
  1.686967e+00    3.106698e+00
  1.798096e+00    3.024768e+00
  1.909225e+00    3.231939e+00
  2.020354e+00    3.121408e+00
  2.131483e+00    3.067777e+00
  2.242612e+00    3.109161e+00
  2.353741e+00    3.102792e+00
  2.464870e+00    3.123579e+00
  2.575999e+00    3.170938e+00
  2.687128e+00    3.222393e+00
  2.798257e+00    3.259640e+00
  2.909386e+00    3.351966e+00
  3.020515e+00    3.391463e+00
  3.131644e+00    3.314655e+00
  3.242773e+00    3.383408e+00
  3.353902e+00    3.445416e+00
  3.465031e+00    3.387695e+00
  3.576160e+00    3.531877e+00
  3.687289e+00    3.314083e+00
  3.798418e+00    3.479532e+00
  3.909547e+00    3.478182e+00
  4.020676e+00    3.441233e+00
  4.131806e+00    3.520154e+00
  4.242935e+00    3.586288e+00
  4.354064e+00    3.499182e+00
  4.465193e+00    3.644912e+00
  4.576322e+00    3.545294e+00
  4.687451e+00    3.581516e+00
  4.798580e+00    3.601230e+00
  4.909709e+00    3.616436e+00
  5.020838e+00    3.580741e+00
  5.131967e+00    3.648429e+00
  5.243096e+00    3.626842e+00
  5.354225e+00    3.632445e+00
  5.465354e+00    3.532772e+00
  5.576483e+00    3.719840e+00
  5.687612e+00    3.522873e+00
  5.798741e+00    3.616933e+00
  5.909870e+00    3.563667e+00
  6.020999e+00    3.474049e+00
  6.132128e+00    3.533222e+00
  6.243257e+00    3.552727e+00
  6.354386e+00    3.524390e+00
  6.465515e+00    3.503256e+00
  6.576644e+00    3.535548e+00
  6.687773e+00    3.527756e+00
  6.798902e+00    3.524269e+00
  6.910031e+00    3.455915e+00
  7.021160e+00    3.555049e+00
  7.132289e+00    3.476422e+00
  7.243418e+00    3.474824e+00
  7.354547e+00    3.532163e+00
  7.465676e+00    3.491856e+00
  7.576805e+00    3.464113e+00
  7.687934e+00    3.473745e+00
  7.799063e+00    3.365650e+00
  7.910192e+00    3.392523e+00
  8.021321e+00    3.398322e+00
  8.132450e+00    3.468497e+00
  8.243579e+00    3.362871e+00
  8.354708e+00    3.319796e+00
  8.465837e+00    3.307455e+00
  8.576966e+00    3.305304e+00
  8.688095e+00    3.328099e+00
  8.799224e+00    3.304516e+00
  8.910353e+00    3.281013e+00
  9.021482e+00    3.306692e+00
  9.132611e+00    3.289455e+00
  9.243740e+00    3.228644e+00
  9.354869e+00    3.211398e+00
  9.465998e+00    3.156144e+00
  9.577127e+00    3.218627e+00
  9.688256e+00    3.118336e+00
  9.799385e+00    3.099950e+00
  9.910514e+00    3.071347e+00
  1.002164e+01    3.036711e+00
  1.013277e+01    3.080473e+00
  1.024390e+01    3.068857e+00
  1.035503e+01    3.035309e+00
  1.046616e+01    3.045079e+00
  1.057729e+01    2.973392e+00
  1.068842e+01    3.017566e+00
  1.079955e+01    2.960129e+00
  1.091068e+01    2.898267e+00
  1.102180e+01    2.874645e+00
  1.113293e+01    2.833659e+00
  1.124406e+01    2.885650e+00
  1.135519e+01    2.811561e+00
  1.146632e+01    2.776703e+00
  1.157745e+01    2.748338e+00
  1.168858e+01    2.736593e+00
  1.179971e+01    2.700540e+00
  1.191084e+01    2.701711e+00
  1.202197e+01    2.708788e+00
  1.213309e+01    2.745877e+00
  1.224422e+01    2.670830e+00
  1.235535e+01    2.673299e+00
  1.246648e+01    2.742722e+00
  1.257761e+01    2.673702e+00
  1.268874e+01    2.792401e+00
  1.279987e+01    2.984054e+00
  1.291100e+01    3.634684e+00
  1.302213e+01    6.701293e+00
  1.313326e+01    1.474955e+01
  1.324438e+01    1.067380e+01
  1.335551e+01    4.403749e+00
  1.346664e+01    3.152244e+00
  1.357777e+01    2.695334e+00
  1.368890e+01    2.569046e+00
  1.380003e+01    2.429869e+00
  1.391116e+01    2.388541e+00
  1.402229e+01    2.375848e+00
  1.413342e+01    2.309829e+00
  1.424455e+01    2.282482e+00
  1.435568e+01    2.225181e+00
  1.446680e+01    2.215543e+00
  1.457793e+01    2.207586e+00
  1.468906e+01    2.197323e+00
  1.480019e+01    2.180517e+00
  1.491132e+01    2.248236e+00
  1.502245e+01    2.446618e+00
  1.513358e+01    3.785613e+00
  1.524471e+01    5.682909e+00
  1.535584e+01    3.731634e+00
  1.546697e+01    2.397452e+00
  1.557809e+01    2.139496e+00
  1.568922e+01    1.996753e+00
  1.580035e+01    1.937060e+00
  1.591148e+01    1.896026e+00
  1.602261e+01    1.884780e+00
  1.613374e+01    1.814368e+00
  1.624487e+01    1.779862e+00
  1.635600e+01    1.768661e+00
  1.646713e+01    1.763807e+00
  1.657826e+01    1.747799e+00
  1.668938e+01    1.745723e+00
  1.680051e+01    1.688939e+00
  1.691164e+01    1.657176e+00
  1.702277e+01    1.637932e+00
  1.713390e+01    1.619835e+00
  1.724503e+01    1.624986e+00
  1.735616e+01    1.576603e+00
  1.746729e+01    1.597503e+00
  1.757842e+01    1.549289e+00
  1.768955e+01    1.531868e+00
  1.780067e+01    1.541611e+00
  1.791180e+01    1.530040e+00
  1.802293e+01    1.494145e+00
  1.813406e+01    1.493653e+00
  1.824519e+01    1.483149e+00
  1.835632e+01    1.470990e+00
  1.846745e+01    1.438180e+00
  1.857858e+01    1.442571e+00
  1.868971e+01    1.400241e+00
  1.880084e+01    1.437647e+00
  1.891196e+01    1.407202e+00
  1.902309e+01    1.372404e+00
  1.913422e+01    1.366098e+00
  1.924535e+01    1.361272e+00
  1.935648e+01    1.352749e+00
  1.946761e+01    1.325597e+00
  1.957874e+01    1.315031e+00
  1.968987e+01    1.302050e+00
  1.980100e+01    1.260906e+00
  1.991213e+01    1.277594e+00
  2.002325e+01    1.305100e+00
  2.013438e+01    1.252807e+00
  2.024551e+01    1.277559e+00
  2.035664e+01    1.221805e+00
  2.046777e+01    1.229611e+00
  2.057890e+01    1.220689e+00
  2.069003e+01    1.213347e+00
  2.080116e+01    1.227706e+00
  2.091229e+01    1.215770e+00
  2.102342e+01    1.213389e+00
  2.113455e+01    1.199290e+00
  2.124567e+01    1.242796e+00
  2.135680e+01    1.264636e+00
  2.146793e+01    1.381962e+00
  2.157906e+01    1.626650e+00
  2.169019e+01    2.490557e+00
  2.180132e+01    5.804282e+00
  2.191245e+01    8.688307e+00
  2.202358e+01    3.615593e+00
  2.213471e+01    1.835715e+00
  2.224584e+01    1.404697e+00
  2.235696e+01    1.237530e+00
  2.246809e+01    1.163220e+00
  2.257922e+01    1.114504e+00
  2.269035e+01    1.069808e+00
  2.280148e+01    1.029037e+00
  2.291261e+01    1.021682e+00
  2.302374e+01    1.035100e+00
  2.313487e+01    9.758502e-01
  2.324600e+01    9.920454e-01
  2.335713e+01    9.773941e-01
  2.346825e+01    9.766250e-01
  2.357938e+01    9.372988e-01
  2.369051e+01    9.346986e-01
  2.380164e+01    9.287335e-01
  2.391277e+01    9.104142e-01
  2.402390e+01    8.716896e-01
  2.413503e+01    8.791319e-01
  2.424616e+01    8.916414e-01
  2.435729e+01    9.028881e-01
  2.446842e+01    8.768765e-01
  2.457954e+01    8.920678e-01
  2.469067e+01    8.951576e-01
  2.480180e+01    8.653825e-01
  2.491293e+01    9.059886e-01
  2.502406e+01    8.699476e-01
  2.513519e+01    8.718615e-01
  2.524632e+01    9.549072e-01
  2.535745e+01    9.480538e-01
  2.546858e+01    1.024519e+00
  2.557971e+01    1.161271e+00
  2.569083e+01    1.508527e+00
  2.580196e+01    2.753107e+00
  2.591309e+01    6.320048e+00
  2.602422e+01    5.255058e+00
  2.613535e+01    2.105558e+00
  2.624648e+01    1.342049e+00
  2.635761e+01    1.094866e+00
  2.646874e+01    1.032047e+00
  2.657987e+01    9.686475e-01
  2.669100e+01    9.849134e-01
  2.680212e+01    9.640022e-01
  2.691325e+01    9.802743e-01
  2.702438e+01    1.161061e+00
  2.713551e+01    1.722680e+00
  2.724664e+01    2.079539e+00
  2.735777e+01    1.276727e+00
  2.746890e+01    1.003742e+00
  2.758003e+01    9.402970e-01
  2.769116e+01    8.968870e-01
  2.780229e+01    8.744272e-01
  2.791342e+01    8.554692e-01
  2.802454e+01    8.602830e-01
  2.813567e+01    8.354899e-01
  2.824680e+01    8.398570e-01
  2.835793e+01    8.507613e-01
  2.846906e+01    8.410041e-01
  2.858019e+01    8.311638e-01
  2.869132e+01    8.367877e-01
  2.880245e+01    8.333580e-01
  2.891358e+01    8.112205e-01
  2.902471e+01    8.016995e-01
  2.913583e+01    7.867538e-01
  2.924696e+01    8.094127e-01
  2.935809e+01    7.941276e-01
  2.946922e+01    7.907707e-01
  2.958035e+01    8.079949e-01
  2.969148e+01    7.743577e-01
  2.980261e+01    8.108377e-01
  2.991374e+01    7.874724e-01
  3.002487e+01    7.947992e-01
  3.013600e+01    7.723718e-01
  3.024712e+01    7.665993e-01
  3.035825e+01    7.947664e-01
  3.046938e+01    7.838551e-01
  3.058051e+01    7.958328e-01
  3.069164e+01    7.629584e-01
  3.080277e+01    7.811858e-01
  3.091390e+01    8.041230e-01
  3.102503e+01    7.877905e-01
  3.113616e+01    7.785829e-01
  3.124729e+01    8.005161e-01
  3.135841e+01    7.973490e-01
  3.146954e+01    8.070214e-01
  3.158067e+01    8.586263e-01
  3.169180e+01    9.809895e-01
  3.180293e+01    1.445796e+00
  3.191406e+01    2.086531e+00
  3.202519e+01    1.303328e+00
  3.213632e+01    8.999682e-01
  3.224745e+01    7.918685e-01
  3.235858e+01    7.875917e-01
  3.246970e+01    7.713279e-01
  3.254908e+01    7.670066e-01