File: XRD/Reaction conditions/2024-07-27_003_Ru-CGO-ex_Reaction_dwell_000023_data_000156.dat
# == pyFAI calibration ==
# Distance Sample to Detector: 0.4 m
# PONI: 9.750e-02, 1.135e-01 m
# Rotations: -0.000175 0.000000 -0.000000 rad
#
# == Fit2d calibration ==
# Distance Sample-beamCenter: 400.000 mm
# Center: x=1514.000, y=1300.000 pix
# Tilt: 0.010 deg  TiltPlanRot: 0.010 deg
#
# Detector Detector	 Spline= None	 PixelSize= 7.500e-05, 7.500e-05 m
#    Detector has a mask: False
#    Detector has a dark current: False
#    detector has a flat field: False
#
# Wavelength: 6.888e-11 m
# Mask applied: user provided
# Dark current applied: False
# Flat field applied: False
# Polarization factor: 0.99
# Normalization factor: 1.0
# --> /home/myspot/data/2024_07_Rosario/Ru-CGO-ex/2024-07-27_003_Ru-CGO-ex_Reaction_dwell_000023_data_000156.dat
#       q_nm^-1             I
  2.003187e-02    0.000000e+00
  1.311609e-01    1.243245e-01
  2.422899e-01    5.194215e-02
  3.534189e-01    6.923559e-02
  4.645479e-01    4.071789e-02
  5.756770e-01    4.567754e-02
  6.868060e-01    1.738356e-02
  7.979350e-01    1.203612e-01
  9.090640e-01    6.202062e-01
  1.020193e+00    1.279075e+00
  1.131322e+00    1.561666e+00
  1.242451e+00    2.408977e+00
  1.353580e+00    2.777493e+00
  1.464709e+00    2.962473e+00
  1.575838e+00    3.108694e+00
  1.686967e+00    3.181426e+00
  1.798096e+00    3.187713e+00
  1.909225e+00    3.048995e+00
  2.020354e+00    3.073296e+00
  2.131483e+00    3.030641e+00
  2.242612e+00    3.151461e+00
  2.353741e+00    3.114592e+00
  2.464870e+00    3.101258e+00
  2.575999e+00    3.188986e+00
  2.687128e+00    3.164202e+00
  2.798257e+00    3.292171e+00
  2.909386e+00    3.277220e+00
  3.020515e+00    3.341681e+00
  3.131644e+00    3.332793e+00
  3.242773e+00    3.450222e+00
  3.353902e+00    3.363147e+00
  3.465031e+00    3.391990e+00
  3.576160e+00    3.448885e+00
  3.687289e+00    3.381012e+00
  3.798418e+00    3.439179e+00
  3.909547e+00    3.501482e+00
  4.020676e+00    3.541157e+00
  4.131806e+00    3.559741e+00
  4.242935e+00    3.576307e+00
  4.354064e+00    3.539889e+00
  4.465193e+00    3.607303e+00
  4.576322e+00    3.490073e+00
  4.687451e+00    3.619178e+00
  4.798580e+00    3.639000e+00
  4.909709e+00    3.630819e+00
  5.020838e+00    3.548836e+00
  5.131967e+00    3.569210e+00
  5.243096e+00    3.546572e+00
  5.354225e+00    3.690311e+00
  5.465354e+00    3.658527e+00
  5.576483e+00    3.497968e+00
  5.687612e+00    3.558606e+00
  5.798741e+00    3.476907e+00
  5.909870e+00    3.542752e+00
  6.020999e+00    3.419073e+00
  6.132128e+00    3.570564e+00
  6.243257e+00    3.447335e+00
  6.354386e+00    3.522499e+00
  6.465515e+00    3.570730e+00
  6.576644e+00    3.561741e+00
  6.687773e+00    3.599577e+00
  6.798902e+00    3.439232e+00
  6.910031e+00    3.547200e+00
  7.021160e+00    3.521590e+00
  7.132289e+00    3.513093e+00
  7.243418e+00    3.473733e+00
  7.354547e+00    3.509973e+00
  7.465676e+00    3.487716e+00
  7.576805e+00    3.430913e+00
  7.687934e+00    3.449659e+00
  7.799063e+00    3.443835e+00
  7.910192e+00    3.424943e+00
  8.021321e+00    3.312492e+00
  8.132450e+00    3.410857e+00
  8.243579e+00    3.504891e+00
  8.354708e+00    3.362851e+00
  8.465837e+00    3.327246e+00
  8.576966e+00    3.330914e+00
  8.688095e+00    3.290334e+00
  8.799224e+00    3.273931e+00
  8.910353e+00    3.357277e+00
  9.021482e+00    3.283101e+00
  9.132611e+00    3.233243e+00
  9.243740e+00    3.196925e+00
  9.354869e+00    3.193513e+00
  9.465998e+00    3.155118e+00
  9.577127e+00    3.198692e+00
  9.688256e+00    3.133725e+00
  9.799385e+00    3.146567e+00
  9.910514e+00    3.171484e+00
  1.002164e+01    3.138292e+00
  1.013277e+01    3.074972e+00
  1.024390e+01    3.085323e+00
  1.035503e+01    2.953015e+00
  1.046616e+01    3.013186e+00
  1.057729e+01    2.941509e+00
  1.068842e+01    3.006593e+00
  1.079955e+01    2.911799e+00
  1.091068e+01    2.904658e+00
  1.102180e+01    2.886516e+00
  1.113293e+01    2.889546e+00
  1.124406e+01    2.829616e+00
  1.135519e+01    2.775693e+00
  1.146632e+01    2.820375e+00
  1.157745e+01    2.810542e+00
  1.168858e+01    2.757590e+00
  1.179971e+01    2.693088e+00
  1.191084e+01    2.728747e+00
  1.202197e+01    2.652142e+00
  1.213309e+01    2.682312e+00
  1.224422e+01    2.718418e+00
  1.235535e+01    2.747234e+00
  1.246648e+01    2.723519e+00
  1.257761e+01    2.708752e+00
  1.268874e+01    2.780618e+00
  1.279987e+01    2.991817e+00
  1.291100e+01    3.604475e+00
  1.302213e+01    6.587873e+00
  1.313326e+01    1.456541e+01
  1.324438e+01    1.063313e+01
  1.335551e+01    4.409634e+00
  1.346664e+01    3.159985e+00
  1.357777e+01    2.714956e+00
  1.368890e+01    2.545755e+00
  1.380003e+01    2.450683e+00
  1.391116e+01    2.365336e+00
  1.402229e+01    2.352919e+00
  1.413342e+01    2.273229e+00
  1.424455e+01    2.291926e+00
  1.435568e+01    2.207521e+00
  1.446680e+01    2.197180e+00
  1.457793e+01    2.251256e+00
  1.468906e+01    2.179965e+00
  1.480019e+01    2.189241e+00
  1.491132e+01    2.201486e+00
  1.502245e+01    2.447694e+00
  1.513358e+01    3.731034e+00
  1.524471e+01    5.697110e+00
  1.535584e+01    3.816544e+00
  1.546697e+01    2.421200e+00
  1.557809e+01    2.104723e+00
  1.568922e+01    2.001902e+00
  1.580035e+01    1.944207e+00
  1.591148e+01    1.877974e+00
  1.602261e+01    1.863027e+00
  1.613374e+01    1.838684e+00
  1.624487e+01    1.806464e+00
  1.635600e+01    1.773627e+00
  1.646713e+01    1.778010e+00
  1.657826e+01    1.755835e+00
  1.668938e+01    1.731527e+00
  1.680051e+01    1.678262e+00
  1.691164e+01    1.683104e+00
  1.702277e+01    1.653453e+00
  1.713390e+01    1.629612e+00
  1.724503e+01    1.634349e+00
  1.735616e+01    1.649985e+00
  1.746729e+01    1.595685e+00
  1.757842e+01    1.600038e+00
  1.768955e+01    1.537560e+00
  1.780067e+01    1.554879e+00
  1.791180e+01    1.523716e+00
  1.802293e+01    1.520268e+00
  1.813406e+01    1.503217e+00
  1.824519e+01    1.481703e+00
  1.835632e+01    1.452461e+00
  1.846745e+01    1.458456e+00
  1.857858e+01    1.444747e+00
  1.868971e+01    1.425964e+00
  1.880084e+01    1.402028e+00
  1.891196e+01    1.402570e+00
  1.902309e+01    1.374966e+00
  1.913422e+01    1.354570e+00
  1.924535e+01    1.374024e+00
  1.935648e+01    1.345608e+00
  1.946761e+01    1.338114e+00
  1.957874e+01    1.308878e+00
  1.968987e+01    1.310981e+00
  1.980100e+01    1.277073e+00
  1.991213e+01    1.298146e+00
  2.002325e+01    1.285732e+00
  2.013438e+01    1.257098e+00
  2.024551e+01    1.257252e+00
  2.035664e+01    1.251995e+00
  2.046777e+01    1.236611e+00
  2.057890e+01    1.241802e+00
  2.069003e+01    1.220650e+00
  2.080116e+01    1.211166e+00
  2.091229e+01    1.241471e+00
  2.102342e+01    1.227987e+00
  2.113455e+01    1.227416e+00
  2.124567e+01    1.240517e+00
  2.135680e+01    1.289725e+00
  2.146793e+01    1.370971e+00
  2.157906e+01    1.616681e+00
  2.169019e+01    2.499705e+00
  2.180132e+01    5.683661e+00
  2.191245e+01    8.702104e+00
  2.202358e+01    3.605518e+00
  2.213471e+01    1.853421e+00
  2.224584e+01    1.405689e+00
  2.235696e+01    1.232961e+00
  2.246809e+01    1.153208e+00
  2.257922e+01    1.113169e+00
  2.269035e+01    1.078930e+00
  2.280148e+01    1.044852e+00
  2.291261e+01    1.026336e+00
  2.302374e+01    1.008340e+00
  2.313487e+01    1.014690e+00
  2.324600e+01    9.915978e-01
  2.335713e+01    9.668239e-01
  2.346825e+01    9.701881e-01
  2.357938e+01    9.364364e-01
  2.369051e+01    9.357697e-01
  2.380164e+01    9.122992e-01
  2.391277e+01    9.077991e-01
  2.402390e+01    8.741115e-01
  2.413503e+01    8.881099e-01
  2.424616e+01    8.720725e-01
  2.435729e+01    8.889199e-01
  2.446842e+01    9.011146e-01
  2.457954e+01    8.767678e-01
  2.469067e+01    8.962806e-01
  2.480180e+01    8.843147e-01
  2.491293e+01    8.896645e-01
  2.502406e+01    8.794434e-01
  2.513519e+01    8.911704e-01
  2.524632e+01    9.293571e-01
  2.535745e+01    9.667938e-01
  2.546858e+01    1.031064e+00
  2.557971e+01    1.165766e+00
  2.569083e+01    1.474287e+00
  2.580196e+01    2.722765e+00
  2.591309e+01    6.283214e+00
  2.602422e+01    5.310112e+00
  2.613535e+01    2.148105e+00
  2.624648e+01    1.322005e+00
  2.635761e+01    1.121992e+00
  2.646874e+01    1.032450e+00
  2.657987e+01    9.696888e-01
  2.669100e+01    9.619533e-01
  2.680212e+01    9.557724e-01
  2.691325e+01    9.965118e-01
  2.702438e+01    1.144250e+00
  2.713551e+01    1.723787e+00
  2.724664e+01    2.085360e+00
  2.735777e+01    1.267302e+00
  2.746890e+01    1.017085e+00
  2.758003e+01    9.215034e-01
  2.769116e+01    9.039980e-01
  2.780229e+01    8.730757e-01
  2.791342e+01    8.633636e-01
  2.802454e+01    8.809740e-01
  2.813567e+01    8.519704e-01
  2.824680e+01    8.497503e-01
  2.835793e+01    8.478885e-01
  2.846906e+01    8.310741e-01
  2.858019e+01    8.110462e-01
  2.869132e+01    8.078910e-01
  2.880245e+01    8.143650e-01
  2.891358e+01    8.295919e-01
  2.902471e+01    8.035154e-01
  2.913583e+01    8.080157e-01
  2.924696e+01    8.172060e-01
  2.935809e+01    8.133109e-01
  2.946922e+01    7.972270e-01
  2.958035e+01    7.965514e-01
  2.969148e+01    7.882775e-01
  2.980261e+01    7.820277e-01
  2.991374e+01    7.895486e-01
  3.002487e+01    7.878349e-01
  3.013600e+01    7.914406e-01
  3.024712e+01    7.897598e-01
  3.035825e+01    7.789580e-01
  3.046938e+01    7.773482e-01
  3.058051e+01    7.673389e-01
  3.069164e+01    7.792276e-01
  3.080277e+01    7.590435e-01
  3.091390e+01    7.743528e-01
  3.102503e+01    7.907563e-01
  3.113616e+01    7.784182e-01
  3.124729e+01    7.738993e-01
  3.135841e+01    7.872483e-01
  3.146954e+01    8.104795e-01
  3.158067e+01    8.717275e-01
  3.169180e+01    9.730433e-01
  3.180293e+01    1.443883e+00
  3.191406e+01    2.084724e+00
  3.202519e+01    1.305999e+00
  3.213632e+01    9.347750e-01
  3.224745e+01    8.490514e-01
  3.235858e+01    8.134998e-01
  3.246970e+01    7.867544e-01
  3.254908e+01    7.706113e-01