File: XRD/Reaction conditions/2024-07-27_003_Ru-CGO-ex_Reaction_dwell_000023_data_000025.dat
# == pyFAI calibration ==
# Distance Sample to Detector: 0.4 m
# PONI: 9.750e-02, 1.135e-01 m
# Rotations: -0.000175 0.000000 -0.000000 rad
#
# == Fit2d calibration ==
# Distance Sample-beamCenter: 400.000 mm
# Center: x=1514.000, y=1300.000 pix
# Tilt: 0.010 deg  TiltPlanRot: 0.010 deg
#
# Detector Detector	 Spline= None	 PixelSize= 7.500e-05, 7.500e-05 m
#    Detector has a mask: False
#    Detector has a dark current: False
#    detector has a flat field: False
#
# Wavelength: 6.888e-11 m
# Mask applied: user provided
# Dark current applied: False
# Flat field applied: False
# Polarization factor: 0.99
# Normalization factor: 1.0
# --> /home/myspot/data/2024_07_Rosario/Ru-CGO-ex/2024-07-27_003_Ru-CGO-ex_Reaction_dwell_000023_data_000025.dat
#       q_nm^-1             I
  2.003187e-02    0.000000e+00
  1.311609e-01    1.853034e-02
  2.422899e-01    3.573047e-02
  3.534189e-01    4.323133e-02
  4.645479e-01    2.560500e-02
  5.756770e-01    1.551678e-02
  6.868060e-01    5.911789e-02
  7.979350e-01    1.652060e-01
  9.090640e-01    6.651731e-01
  1.020193e+00    1.325342e+00
  1.131322e+00    1.590172e+00
  1.242451e+00    2.575465e+00
  1.353580e+00    2.836766e+00
  1.464709e+00    2.947172e+00
  1.575838e+00    3.226772e+00
  1.686967e+00    3.046245e+00
  1.798096e+00    3.116711e+00
  1.909225e+00    3.033338e+00
  2.020354e+00    3.110825e+00
  2.131483e+00    3.250362e+00
  2.242612e+00    3.184322e+00
  2.353741e+00    3.192642e+00
  2.464870e+00    3.191659e+00
  2.575999e+00    3.191776e+00
  2.687128e+00    3.315269e+00
  2.798257e+00    3.218041e+00
  2.909386e+00    3.350638e+00
  3.020515e+00    3.421029e+00
  3.131644e+00    3.370532e+00
  3.242773e+00    3.290361e+00
  3.353902e+00    3.459314e+00
  3.465031e+00    3.543400e+00
  3.576160e+00    3.422545e+00
  3.687289e+00    3.401650e+00
  3.798418e+00    3.511269e+00
  3.909547e+00    3.572213e+00
  4.020676e+00    3.607181e+00
  4.131806e+00    3.562716e+00
  4.242935e+00    3.510051e+00
  4.354064e+00    3.483859e+00
  4.465193e+00    3.590216e+00
  4.576322e+00    3.670611e+00
  4.687451e+00    3.611429e+00
  4.798580e+00    3.552019e+00
  4.909709e+00    3.690154e+00
  5.020838e+00    3.670479e+00
  5.131967e+00    3.715882e+00
  5.243096e+00    3.668718e+00
  5.354225e+00    3.705001e+00
  5.465354e+00    3.672961e+00
  5.576483e+00    3.547931e+00
  5.687612e+00    3.668198e+00
  5.798741e+00    3.545869e+00
  5.909870e+00    3.517040e+00
  6.020999e+00    3.555790e+00
  6.132128e+00    3.614802e+00
  6.243257e+00    3.648783e+00
  6.354386e+00    3.507649e+00
  6.465515e+00    3.524680e+00
  6.576644e+00    3.501853e+00
  6.687773e+00    3.594294e+00
  6.798902e+00    3.518199e+00
  6.910031e+00    3.542238e+00
  7.021160e+00    3.454382e+00
  7.132289e+00    3.503305e+00
  7.243418e+00    3.593412e+00
  7.354547e+00    3.516015e+00
  7.465676e+00    3.513351e+00
  7.576805e+00    3.526032e+00
  7.687934e+00    3.435002e+00
  7.799063e+00    3.488475e+00
  7.910192e+00    3.510366e+00
  8.021321e+00    3.440217e+00
  8.132450e+00    3.573953e+00
  8.243579e+00    3.504818e+00
  8.354708e+00    3.360425e+00
  8.465837e+00    3.397473e+00
  8.576966e+00    3.314746e+00
  8.688095e+00    3.372341e+00
  8.799224e+00    3.285557e+00
  8.910353e+00    3.305951e+00
  9.021482e+00    3.353936e+00
  9.132611e+00    3.284397e+00
  9.243740e+00    3.163642e+00
  9.354869e+00    3.280795e+00
  9.465998e+00    3.288107e+00
  9.577127e+00    3.207198e+00
  9.688256e+00    3.178337e+00
  9.799385e+00    3.208058e+00
  9.910514e+00    3.149430e+00
  1.002164e+01    3.137433e+00
  1.013277e+01    3.108281e+00
  1.024390e+01    3.049614e+00
  1.035503e+01    3.039278e+00
  1.046616e+01    2.976863e+00
  1.057729e+01    3.011346e+00
  1.068842e+01    2.952699e+00
  1.079955e+01    2.984549e+00
  1.091068e+01    2.939389e+00
  1.102180e+01    2.940048e+00
  1.113293e+01    2.864932e+00
  1.124406e+01    2.823739e+00
  1.135519e+01    2.784019e+00
  1.146632e+01    2.843332e+00
  1.157745e+01    2.806841e+00
  1.168858e+01    2.758135e+00
  1.179971e+01    2.765403e+00
  1.191084e+01    2.755297e+00
  1.202197e+01    2.701151e+00
  1.213309e+01    2.666807e+00
  1.224422e+01    2.697572e+00
  1.235535e+01    2.742308e+00
  1.246648e+01    2.714481e+00
  1.257761e+01    2.712527e+00
  1.268874e+01    2.806037e+00
  1.279987e+01    2.948406e+00
  1.291100e+01    3.679207e+00
  1.302213e+01    6.749555e+00
  1.313326e+01    1.494684e+01
  1.324438e+01    1.078268e+01
  1.335551e+01    4.483187e+00
  1.346664e+01    3.191264e+00
  1.357777e+01    2.765493e+00
  1.368890e+01    2.593649e+00
  1.380003e+01    2.478942e+00
  1.391116e+01    2.403488e+00
  1.402229e+01    2.378363e+00
  1.413342e+01    2.352142e+00
  1.424455e+01    2.271689e+00
  1.435568e+01    2.286267e+00
  1.446680e+01    2.257541e+00
  1.457793e+01    2.215966e+00
  1.468906e+01    2.225759e+00
  1.480019e+01    2.242111e+00
  1.491132e+01    2.249624e+00
  1.502245e+01    2.511765e+00
  1.513358e+01    3.838421e+00
  1.524471e+01    5.814187e+00
  1.535584e+01    3.828605e+00
  1.546697e+01    2.459661e+00
  1.557809e+01    2.148205e+00
  1.568922e+01    2.019054e+00
  1.580035e+01    1.908561e+00
  1.591148e+01    1.910790e+00
  1.602261e+01    1.861383e+00
  1.613374e+01    1.863745e+00
  1.624487e+01    1.798535e+00
  1.635600e+01    1.766603e+00
  1.646713e+01    1.777912e+00
  1.657826e+01    1.747385e+00
  1.668938e+01    1.725130e+00
  1.680051e+01    1.721989e+00
  1.691164e+01    1.688696e+00
  1.702277e+01    1.643471e+00
  1.713390e+01    1.645762e+00
  1.724503e+01    1.636890e+00
  1.735616e+01    1.598846e+00
  1.746729e+01    1.600616e+00
  1.757842e+01    1.580536e+00
  1.768955e+01    1.589462e+00
  1.780067e+01    1.573835e+00
  1.791180e+01    1.499406e+00
  1.802293e+01    1.508805e+00
  1.813406e+01    1.490439e+00
  1.824519e+01    1.506560e+00
  1.835632e+01    1.448471e+00
  1.846745e+01    1.431278e+00
  1.857858e+01    1.450902e+00
  1.868971e+01    1.418128e+00
  1.880084e+01    1.412954e+00
  1.891196e+01    1.422495e+00
  1.902309e+01    1.400120e+00
  1.913422e+01    1.359488e+00
  1.924535e+01    1.379805e+00
  1.935648e+01    1.353802e+00
  1.946761e+01    1.333022e+00
  1.957874e+01    1.323163e+00
  1.968987e+01    1.330421e+00
  1.980100e+01    1.304945e+00
  1.991213e+01    1.292891e+00
  2.002325e+01    1.303662e+00
  2.013438e+01    1.259102e+00
  2.024551e+01    1.270222e+00
  2.035664e+01    1.266058e+00
  2.046777e+01    1.265067e+00
  2.057890e+01    1.269943e+00
  2.069003e+01    1.226645e+00
  2.080116e+01    1.239211e+00
  2.091229e+01    1.229974e+00
  2.102342e+01    1.214353e+00
  2.113455e+01    1.252236e+00
  2.124567e+01    1.254976e+00
  2.135680e+01    1.289785e+00
  2.146793e+01    1.376416e+00
  2.157906e+01    1.595112e+00
  2.169019e+01    2.498125e+00
  2.180132e+01    5.928720e+00
  2.191245e+01    8.888033e+00
  2.202358e+01    3.661556e+00
  2.213471e+01    1.894698e+00
  2.224584e+01    1.417590e+00
  2.235696e+01    1.240904e+00
  2.246809e+01    1.140241e+00
  2.257922e+01    1.124913e+00
  2.269035e+01    1.082501e+00
  2.280148e+01    1.062447e+00
  2.291261e+01    1.052301e+00
  2.302374e+01    1.020006e+00
  2.313487e+01    1.021544e+00
  2.324600e+01    9.929818e-01
  2.335713e+01    9.763022e-01
  2.346825e+01    9.783758e-01
  2.357938e+01    9.585170e-01
  2.369051e+01    9.327151e-01
  2.380164e+01    9.090533e-01
  2.391277e+01    9.344346e-01
  2.402390e+01    8.729922e-01
  2.413503e+01    9.083263e-01
  2.424616e+01    9.036012e-01
  2.435729e+01    9.093887e-01
  2.446842e+01    8.957250e-01
  2.457954e+01    8.865005e-01
  2.469067e+01    9.033839e-01
  2.480180e+01    8.842982e-01
  2.491293e+01    8.922989e-01
  2.502406e+01    9.049246e-01
  2.513519e+01    9.117791e-01
  2.524632e+01    9.494985e-01
  2.535745e+01    9.821873e-01
  2.546858e+01    1.037962e+00
  2.557971e+01    1.156601e+00
  2.569083e+01    1.499784e+00
  2.580196e+01    2.821699e+00
  2.591309e+01    6.336689e+00
  2.602422e+01    5.328695e+00
  2.613535e+01    2.153655e+00
  2.624648e+01    1.329392e+00
  2.635761e+01    1.103599e+00
  2.646874e+01    1.022597e+00
  2.657987e+01    9.824248e-01
  2.669100e+01    9.491932e-01
  2.680212e+01    9.860394e-01
  2.691325e+01    1.028536e+00
  2.702438e+01    1.193706e+00
  2.713551e+01    1.734321e+00
  2.724664e+01    2.096366e+00
  2.735777e+01    1.286934e+00
  2.746890e+01    1.030193e+00
  2.758003e+01    9.536471e-01
  2.769116e+01    8.912724e-01
  2.780229e+01    8.809864e-01
  2.791342e+01    8.657688e-01
  2.802454e+01    8.794717e-01
  2.813567e+01    8.476289e-01
  2.824680e+01    8.677042e-01
  2.835793e+01    8.285419e-01
  2.846906e+01    8.488553e-01
  2.858019e+01    8.363971e-01
  2.869132e+01    8.165685e-01
  2.880245e+01    8.333799e-01
  2.891358e+01    8.463858e-01
  2.902471e+01    8.393375e-01
  2.913583e+01    8.127377e-01
  2.924696e+01    8.186097e-01
  2.935809e+01    8.229666e-01
  2.946922e+01    8.030134e-01
  2.958035e+01    8.057502e-01
  2.969148e+01    7.896643e-01
  2.980261e+01    7.927523e-01
  2.991374e+01    7.991486e-01
  3.002487e+01    8.115678e-01
  3.013600e+01    7.929896e-01
  3.024712e+01    7.844306e-01
  3.035825e+01    7.789639e-01
  3.046938e+01    7.768163e-01
  3.058051e+01    7.775560e-01
  3.069164e+01    7.828749e-01
  3.080277e+01    7.885215e-01
  3.091390e+01    7.670282e-01
  3.102503e+01    7.839457e-01
  3.113616e+01    7.814735e-01
  3.124729e+01    7.936536e-01
  3.135841e+01    8.140893e-01
  3.146954e+01    8.247188e-01
  3.158067e+01    8.911699e-01
  3.169180e+01    1.020754e+00
  3.180293e+01    1.471546e+00
  3.191406e+01    2.089592e+00
  3.202519e+01    1.310070e+00
  3.213632e+01    9.534602e-01
  3.224745e+01    8.306413e-01
  3.235858e+01    7.935459e-01
  3.246970e+01    7.926905e-01
  3.254908e+01    7.618623e-01