File: XRD/Reaction conditions/2024-07-27_003_Ru-CGO-ex_Reaction_dwell_000023_data_000064.dat
# == pyFAI calibration ==
# Distance Sample to Detector: 0.4 m
# PONI: 9.750e-02, 1.135e-01 m
# Rotations: -0.000175 0.000000 -0.000000 rad
#
# == Fit2d calibration ==
# Distance Sample-beamCenter: 400.000 mm
# Center: x=1514.000, y=1300.000 pix
# Tilt: 0.010 deg  TiltPlanRot: 0.010 deg
#
# Detector Detector	 Spline= None	 PixelSize= 7.500e-05, 7.500e-05 m
#    Detector has a mask: False
#    Detector has a dark current: False
#    detector has a flat field: False
#
# Wavelength: 6.888e-11 m
# Mask applied: user provided
# Dark current applied: False
# Flat field applied: False
# Polarization factor: 0.99
# Normalization factor: 1.0
# --> /home/myspot/data/2024_07_Rosario/Ru-CGO-ex/2024-07-27_003_Ru-CGO-ex_Reaction_dwell_000023_data_000064.dat
#       q_nm^-1             I
  2.003187e-02    7.712225e-02
  1.311609e-01    9.646866e-02
  2.422899e-01    5.702686e-02
  3.534189e-01    3.472224e-02
  4.645479e-01    3.721396e-02
  5.756770e-01    3.029419e-02
  6.868060e-01    3.134716e-02
  7.979350e-01    1.782296e-01
  9.090640e-01    5.539005e-01
  1.020193e+00    1.212412e+00
  1.131322e+00    1.591883e+00
  1.242451e+00    2.419717e+00
  1.353580e+00    2.768726e+00
  1.464709e+00    2.916978e+00
  1.575838e+00    3.436552e+00
  1.686967e+00    3.063234e+00
  1.798096e+00    3.031247e+00
  1.909225e+00    3.109728e+00
  2.020354e+00    2.988677e+00
  2.131483e+00    3.178393e+00
  2.242612e+00    3.104751e+00
  2.353741e+00    3.175612e+00
  2.464870e+00    3.068821e+00
  2.575999e+00    3.175619e+00
  2.687128e+00    3.227732e+00
  2.798257e+00    3.327427e+00
  2.909386e+00    3.314483e+00
  3.020515e+00    3.286877e+00
  3.131644e+00    3.422320e+00
  3.242773e+00    3.343250e+00
  3.353902e+00    3.398171e+00
  3.465031e+00    3.409401e+00
  3.576160e+00    3.467760e+00
  3.687289e+00    3.503865e+00
  3.798418e+00    3.502050e+00
  3.909547e+00    3.404941e+00
  4.020676e+00    3.592564e+00
  4.131806e+00    3.466096e+00
  4.242935e+00    3.533867e+00
  4.354064e+00    3.585084e+00
  4.465193e+00    3.652045e+00
  4.576322e+00    3.650851e+00
  4.687451e+00    3.572968e+00
  4.798580e+00    3.655479e+00
  4.909709e+00    3.677313e+00
  5.020838e+00    3.633828e+00
  5.131967e+00    3.707762e+00
  5.243096e+00    3.587026e+00
  5.354225e+00    3.647224e+00
  5.465354e+00    3.669878e+00
  5.576483e+00    3.647710e+00
  5.687612e+00    3.561234e+00
  5.798741e+00    3.539442e+00
  5.909870e+00    3.508651e+00
  6.020999e+00    3.594430e+00
  6.132128e+00    3.602524e+00
  6.243257e+00    3.564095e+00
  6.354386e+00    3.668113e+00
  6.465515e+00    3.479101e+00
  6.576644e+00    3.628108e+00
  6.687773e+00    3.544581e+00
  6.798902e+00    3.543211e+00
  6.910031e+00    3.670831e+00
  7.021160e+00    3.605779e+00
  7.132289e+00    3.592116e+00
  7.243418e+00    3.497738e+00
  7.354547e+00    3.582473e+00
  7.465676e+00    3.488364e+00
  7.576805e+00    3.440158e+00
  7.687934e+00    3.516158e+00
  7.799063e+00    3.580528e+00
  7.910192e+00    3.377536e+00
  8.021321e+00    3.412348e+00
  8.132450e+00    3.471114e+00
  8.243579e+00    3.484601e+00
  8.354708e+00    3.435695e+00
  8.465837e+00    3.335440e+00
  8.576966e+00    3.341920e+00
  8.688095e+00    3.341200e+00
  8.799224e+00    3.378829e+00
  8.910353e+00    3.288507e+00
  9.021482e+00    3.283030e+00
  9.132611e+00    3.326785e+00
  9.243740e+00    3.305110e+00
  9.354869e+00    3.271225e+00
  9.465998e+00    3.200633e+00
  9.577127e+00    3.291454e+00
  9.688256e+00    3.226144e+00
  9.799385e+00    3.180007e+00
  9.910514e+00    3.112258e+00
  1.002164e+01    3.101322e+00
  1.013277e+01    3.091930e+00
  1.024390e+01    3.106705e+00
  1.035503e+01    3.069729e+00
  1.046616e+01    3.060337e+00
  1.057729e+01    2.965495e+00
  1.068842e+01    2.963786e+00
  1.079955e+01    3.010020e+00
  1.091068e+01    2.922976e+00
  1.102180e+01    2.914608e+00
  1.113293e+01    2.895024e+00
  1.124406e+01    2.906854e+00
  1.135519e+01    2.844396e+00
  1.146632e+01    2.798295e+00
  1.157745e+01    2.821424e+00
  1.168858e+01    2.784126e+00
  1.179971e+01    2.776769e+00
  1.191084e+01    2.692359e+00
  1.202197e+01    2.698960e+00
  1.213309e+01    2.700373e+00
  1.224422e+01    2.741296e+00
  1.235535e+01    2.715924e+00
  1.246648e+01    2.727355e+00
  1.257761e+01    2.761954e+00
  1.268874e+01    2.840425e+00
  1.279987e+01    2.992018e+00
  1.291100e+01    3.688662e+00
  1.302213e+01    6.641051e+00
  1.313326e+01    1.487431e+01
  1.324438e+01    1.072725e+01
  1.335551e+01    4.447114e+00
  1.346664e+01    3.156245e+00
  1.357777e+01    2.743563e+00
  1.368890e+01    2.618454e+00
  1.380003e+01    2.490763e+00
  1.391116e+01    2.394279e+00
  1.402229e+01    2.328905e+00
  1.413342e+01    2.360435e+00
  1.424455e+01    2.288178e+00
  1.435568e+01    2.250802e+00
  1.446680e+01    2.263115e+00
  1.457793e+01    2.248218e+00
  1.468906e+01    2.175789e+00
  1.480019e+01    2.170768e+00
  1.491132e+01    2.303968e+00
  1.502245e+01    2.480631e+00
  1.513358e+01    3.790300e+00
  1.524471e+01    5.771594e+00
  1.535584e+01    3.779342e+00
  1.546697e+01    2.457117e+00
  1.557809e+01    2.146248e+00
  1.568922e+01    2.022536e+00
  1.580035e+01    1.957495e+00
  1.591148e+01    1.894412e+00
  1.602261e+01    1.874413e+00
  1.613374e+01    1.859945e+00
  1.624487e+01    1.804847e+00
  1.635600e+01    1.784887e+00
  1.646713e+01    1.777413e+00
  1.657826e+01    1.744805e+00
  1.668938e+01    1.728956e+00
  1.680051e+01    1.704123e+00
  1.691164e+01    1.697508e+00
  1.702277e+01    1.672311e+00
  1.713390e+01    1.656201e+00
  1.724503e+01    1.633729e+00
  1.735616e+01    1.603435e+00
  1.746729e+01    1.546299e+00
  1.757842e+01    1.570072e+00
  1.768955e+01    1.530121e+00
  1.780067e+01    1.527605e+00
  1.791180e+01    1.547940e+00
  1.802293e+01    1.525573e+00
  1.813406e+01    1.455622e+00
  1.824519e+01    1.518287e+00
  1.835632e+01    1.484086e+00
  1.846745e+01    1.444130e+00
  1.857858e+01    1.434154e+00
  1.868971e+01    1.409323e+00
  1.880084e+01    1.419568e+00
  1.891196e+01    1.381995e+00
  1.902309e+01    1.402113e+00
  1.913422e+01    1.367592e+00
  1.924535e+01    1.356261e+00
  1.935648e+01    1.355695e+00
  1.946761e+01    1.339755e+00
  1.957874e+01    1.346002e+00
  1.968987e+01    1.332095e+00
  1.980100e+01    1.279029e+00
  1.991213e+01    1.302690e+00
  2.002325e+01    1.277867e+00
  2.013438e+01    1.290918e+00
  2.024551e+01    1.247420e+00
  2.035664e+01    1.238695e+00
  2.046777e+01    1.252836e+00
  2.057890e+01    1.217703e+00
  2.069003e+01    1.241506e+00
  2.080116e+01    1.225746e+00
  2.091229e+01    1.224034e+00
  2.102342e+01    1.212502e+00
  2.113455e+01    1.230778e+00
  2.124567e+01    1.236790e+00
  2.135680e+01    1.281793e+00
  2.146793e+01    1.386598e+00
  2.157906e+01    1.632358e+00
  2.169019e+01    2.490765e+00
  2.180132e+01    5.870294e+00
  2.191245e+01    8.758656e+00
  2.202358e+01    3.651722e+00
  2.213471e+01    1.863213e+00
  2.224584e+01    1.403605e+00
  2.235696e+01    1.270121e+00
  2.246809e+01    1.167487e+00
  2.257922e+01    1.122503e+00
  2.269035e+01    1.086330e+00
  2.280148e+01    1.076529e+00
  2.291261e+01    1.022865e+00
  2.302374e+01    1.017886e+00
  2.313487e+01    1.011429e+00
  2.324600e+01    9.848668e-01
  2.335713e+01    9.771178e-01
  2.346825e+01    9.570594e-01
  2.357938e+01    9.701579e-01
  2.369051e+01    9.472176e-01
  2.380164e+01    9.181318e-01
  2.391277e+01    9.247453e-01
  2.402390e+01    9.183333e-01
  2.413503e+01    8.847654e-01
  2.424616e+01    8.955973e-01
  2.435729e+01    8.914750e-01
  2.446842e+01    9.064043e-01
  2.457954e+01    8.767331e-01
  2.469067e+01    9.006554e-01
  2.480180e+01    9.004875e-01
  2.491293e+01    8.911576e-01
  2.502406e+01    9.075362e-01
  2.513519e+01    9.261809e-01
  2.524632e+01    9.389428e-01
  2.535745e+01    9.658524e-01
  2.546858e+01    1.031580e+00
  2.557971e+01    1.169859e+00
  2.569083e+01    1.519800e+00
  2.580196e+01    2.801897e+00
  2.591309e+01    6.329847e+00
  2.602422e+01    5.379919e+00
  2.613535e+01    2.151327e+00
  2.624648e+01    1.354095e+00
  2.635761e+01    1.096952e+00
  2.646874e+01    1.020101e+00
  2.657987e+01    9.889473e-01
  2.669100e+01    9.703038e-01
  2.680212e+01    9.688917e-01
  2.691325e+01    1.023524e+00
  2.702438e+01    1.167853e+00
  2.713551e+01    1.707685e+00
  2.724664e+01    2.080476e+00
  2.735777e+01    1.292391e+00
  2.746890e+01    1.031305e+00
  2.758003e+01    9.477206e-01
  2.769116e+01    9.080307e-01
  2.780229e+01    8.993541e-01
  2.791342e+01    8.831289e-01
  2.802454e+01    8.801118e-01
  2.813567e+01    8.546422e-01
  2.824680e+01    8.504148e-01
  2.835793e+01    8.741785e-01
  2.846906e+01    8.448641e-01
  2.858019e+01    8.390321e-01
  2.869132e+01    8.431396e-01
  2.880245e+01    8.122744e-01
  2.891358e+01    8.294226e-01
  2.902471e+01    8.218965e-01
  2.913583e+01    8.053927e-01
  2.924696e+01    8.162996e-01
  2.935809e+01    8.104768e-01
  2.946922e+01    8.112829e-01
  2.958035e+01    8.265706e-01
  2.969148e+01    8.039616e-01
  2.980261e+01    8.165827e-01
  2.991374e+01    8.094578e-01
  3.002487e+01    8.051931e-01
  3.013600e+01    7.829262e-01
  3.024712e+01    7.974445e-01
  3.035825e+01    7.967930e-01
  3.046938e+01    8.010481e-01
  3.058051e+01    7.986007e-01
  3.069164e+01    7.867303e-01
  3.080277e+01    7.887205e-01
  3.091390e+01    7.735853e-01
  3.102503e+01    7.891564e-01
  3.113616e+01    7.671615e-01
  3.124729e+01    8.101842e-01
  3.135841e+01    8.289908e-01
  3.146954e+01    8.013769e-01
  3.158067e+01    8.585817e-01
  3.169180e+01    1.022576e+00
  3.180293e+01    1.440017e+00
  3.191406e+01    2.124172e+00
  3.202519e+01    1.339125e+00
  3.213632e+01    9.568489e-01
  3.224745e+01    8.419137e-01
  3.235858e+01    7.916427e-01
  3.246970e+01    7.983767e-01
  3.254908e+01    7.672931e-01