File: XRD/Reaction conditions/2024-07-27_003_Ru-CGO-ex_Reaction_dwell_000023_data_000012.dat
# == pyFAI calibration ==
# Distance Sample to Detector: 0.4 m
# PONI: 9.750e-02, 1.135e-01 m
# Rotations: -0.000175 0.000000 -0.000000 rad
#
# == Fit2d calibration ==
# Distance Sample-beamCenter: 400.000 mm
# Center: x=1514.000, y=1300.000 pix
# Tilt: 0.010 deg  TiltPlanRot: 0.010 deg
#
# Detector Detector	 Spline= None	 PixelSize= 7.500e-05, 7.500e-05 m
#    Detector has a mask: False
#    Detector has a dark current: False
#    detector has a flat field: False
#
# Wavelength: 6.888e-11 m
# Mask applied: user provided
# Dark current applied: False
# Flat field applied: False
# Polarization factor: 0.99
# Normalization factor: 1.0
# --> /home/myspot/data/2024_07_Rosario/Ru-CGO-ex/2024-07-27_003_Ru-CGO-ex_Reaction_dwell_000023_data_000012.dat
#       q_nm^-1             I
  2.003187e-02    2.195846e-01
  1.311609e-01    3.070066e-02
  2.422899e-01    3.299356e-03
  3.534189e-01    5.630253e-02
  4.645479e-01    4.045431e-02
  5.756770e-01    3.032376e-02
  6.868060e-01    3.049218e-02
  7.979350e-01    1.127378e-01
  9.090640e-01    5.756885e-01
  1.020193e+00    1.241460e+00
  1.131322e+00    1.467601e+00
  1.242451e+00    2.422170e+00
  1.353580e+00    2.917744e+00
  1.464709e+00    3.097758e+00
  1.575838e+00    3.210008e+00
  1.686967e+00    3.191858e+00
  1.798096e+00    3.021149e+00
  1.909225e+00    3.016346e+00
  2.020354e+00    3.011318e+00
  2.131483e+00    3.073547e+00
  2.242612e+00    3.062871e+00
  2.353741e+00    3.073867e+00
  2.464870e+00    3.164361e+00
  2.575999e+00    3.211081e+00
  2.687128e+00    3.172647e+00
  2.798257e+00    3.251900e+00
  2.909386e+00    3.292635e+00
  3.020515e+00    3.335111e+00
  3.131644e+00    3.376252e+00
  3.242773e+00    3.353965e+00
  3.353902e+00    3.350982e+00
  3.465031e+00    3.499512e+00
  3.576160e+00    3.378860e+00
  3.687289e+00    3.462217e+00
  3.798418e+00    3.461565e+00
  3.909547e+00    3.488214e+00
  4.020676e+00    3.592513e+00
  4.131806e+00    3.591215e+00
  4.242935e+00    3.540446e+00
  4.354064e+00    3.642822e+00
  4.465193e+00    3.547814e+00
  4.576322e+00    3.670850e+00
  4.687451e+00    3.746269e+00
  4.798580e+00    3.685363e+00
  4.909709e+00    3.736782e+00
  5.020838e+00    3.720208e+00
  5.131967e+00    3.727362e+00
  5.243096e+00    3.576995e+00
  5.354225e+00    3.730839e+00
  5.465354e+00    3.689567e+00
  5.576483e+00    3.716528e+00
  5.687612e+00    3.636967e+00
  5.798741e+00    3.663248e+00
  5.909870e+00    3.612223e+00
  6.020999e+00    3.566858e+00
  6.132128e+00    3.580878e+00
  6.243257e+00    3.529482e+00
  6.354386e+00    3.530736e+00
  6.465515e+00    3.539428e+00
  6.576644e+00    3.556092e+00
  6.687773e+00    3.531997e+00
  6.798902e+00    3.563634e+00
  6.910031e+00    3.542843e+00
  7.021160e+00    3.541420e+00
  7.132289e+00    3.493519e+00
  7.243418e+00    3.472602e+00
  7.354547e+00    3.466213e+00
  7.465676e+00    3.530917e+00
  7.576805e+00    3.490530e+00
  7.687934e+00    3.404980e+00
  7.799063e+00    3.577641e+00
  7.910192e+00    3.436117e+00
  8.021321e+00    3.402847e+00
  8.132450e+00    3.472323e+00
  8.243579e+00    3.487836e+00
  8.354708e+00    3.469691e+00
  8.465837e+00    3.428847e+00
  8.576966e+00    3.418498e+00
  8.688095e+00    3.371140e+00
  8.799224e+00    3.338692e+00
  8.910353e+00    3.370701e+00
  9.021482e+00    3.310212e+00
  9.132611e+00    3.218135e+00
  9.243740e+00    3.233551e+00
  9.354869e+00    3.223152e+00
  9.465998e+00    3.280949e+00
  9.577127e+00    3.161317e+00
  9.688256e+00    3.153070e+00
  9.799385e+00    3.219083e+00
  9.910514e+00    3.107542e+00
  1.002164e+01    3.114226e+00
  1.013277e+01    3.180903e+00
  1.024390e+01    3.099524e+00
  1.035503e+01    3.004223e+00
  1.046616e+01    3.016504e+00
  1.057729e+01    3.016885e+00
  1.068842e+01    2.973733e+00
  1.079955e+01    2.969935e+00
  1.091068e+01    2.971231e+00
  1.102180e+01    2.897782e+00
  1.113293e+01    2.881258e+00
  1.124406e+01    2.878387e+00
  1.135519e+01    2.857902e+00
  1.146632e+01    2.765721e+00
  1.157745e+01    2.813957e+00
  1.168858e+01    2.797789e+00
  1.179971e+01    2.731500e+00
  1.191084e+01    2.706440e+00
  1.202197e+01    2.718672e+00
  1.213309e+01    2.755185e+00
  1.224422e+01    2.707947e+00
  1.235535e+01    2.647309e+00
  1.246648e+01    2.708779e+00
  1.257761e+01    2.748274e+00
  1.268874e+01    2.857752e+00
  1.279987e+01    2.982507e+00
  1.291100e+01    3.657727e+00
  1.302213e+01    6.703259e+00
  1.313326e+01    1.488857e+01
  1.324438e+01    1.054044e+01
  1.335551e+01    4.411015e+00
  1.346664e+01    3.171780e+00
  1.357777e+01    2.781219e+00
  1.368890e+01    2.572770e+00
  1.380003e+01    2.436282e+00
  1.391116e+01    2.415919e+00
  1.402229e+01    2.345716e+00
  1.413342e+01    2.347569e+00
  1.424455e+01    2.292073e+00
  1.435568e+01    2.239626e+00
  1.446680e+01    2.231308e+00
  1.457793e+01    2.222982e+00
  1.468906e+01    2.204973e+00
  1.480019e+01    2.174914e+00
  1.491132e+01    2.249379e+00
  1.502245e+01    2.516194e+00
  1.513358e+01    3.786941e+00
  1.524471e+01    5.681307e+00
  1.535584e+01    3.735210e+00
  1.546697e+01    2.427265e+00
  1.557809e+01    2.116775e+00
  1.568922e+01    1.996165e+00
  1.580035e+01    1.947516e+00
  1.591148e+01    1.943856e+00
  1.602261e+01    1.875508e+00
  1.613374e+01    1.876172e+00
  1.624487e+01    1.813342e+00
  1.635600e+01    1.789588e+00
  1.646713e+01    1.765013e+00
  1.657826e+01    1.786179e+00
  1.668938e+01    1.729363e+00
  1.680051e+01    1.706357e+00
  1.691164e+01    1.672678e+00
  1.702277e+01    1.651444e+00
  1.713390e+01    1.633695e+00
  1.724503e+01    1.610314e+00
  1.735616e+01    1.597848e+00
  1.746729e+01    1.579205e+00
  1.757842e+01    1.569423e+00
  1.768955e+01    1.577872e+00
  1.780067e+01    1.551148e+00
  1.791180e+01    1.537376e+00
  1.802293e+01    1.524280e+00
  1.813406e+01    1.499538e+00
  1.824519e+01    1.495231e+00
  1.835632e+01    1.476344e+00
  1.846745e+01    1.464736e+00
  1.857858e+01    1.425614e+00
  1.868971e+01    1.412397e+00
  1.880084e+01    1.441947e+00
  1.891196e+01    1.390431e+00
  1.902309e+01    1.367308e+00
  1.913422e+01    1.366999e+00
  1.924535e+01    1.379378e+00
  1.935648e+01    1.364150e+00
  1.946761e+01    1.334524e+00
  1.957874e+01    1.347968e+00
  1.968987e+01    1.331554e+00
  1.980100e+01    1.273549e+00
  1.991213e+01    1.305977e+00
  2.002325e+01    1.296848e+00
  2.013438e+01    1.260959e+00
  2.024551e+01    1.253030e+00
  2.035664e+01    1.250315e+00
  2.046777e+01    1.261907e+00
  2.057890e+01    1.232724e+00
  2.069003e+01    1.216726e+00
  2.080116e+01    1.243328e+00
  2.091229e+01    1.220054e+00
  2.102342e+01    1.214724e+00
  2.113455e+01    1.234035e+00
  2.124567e+01    1.237345e+00
  2.135680e+01    1.271968e+00
  2.146793e+01    1.382738e+00
  2.157906e+01    1.607038e+00
  2.169019e+01    2.462001e+00
  2.180132e+01    5.801195e+00
  2.191245e+01    8.805848e+00
  2.202358e+01    3.595607e+00
  2.213471e+01    1.886927e+00
  2.224584e+01    1.441329e+00
  2.235696e+01    1.261419e+00
  2.246809e+01    1.159184e+00
  2.257922e+01    1.124081e+00
  2.269035e+01    1.065672e+00
  2.280148e+01    1.058066e+00
  2.291261e+01    1.025587e+00
  2.302374e+01    1.018526e+00
  2.313487e+01    9.829354e-01
  2.324600e+01    9.873908e-01
  2.335713e+01    9.527385e-01
  2.346825e+01    9.610912e-01
  2.357938e+01    9.690097e-01
  2.369051e+01    9.308721e-01
  2.380164e+01    8.957724e-01
  2.391277e+01    9.363497e-01
  2.402390e+01    9.006459e-01
  2.413503e+01    8.777839e-01
  2.424616e+01    8.824196e-01
  2.435729e+01    9.067131e-01
  2.446842e+01    8.700902e-01
  2.457954e+01    9.069709e-01
  2.469067e+01    9.020306e-01
  2.480180e+01    8.960404e-01
  2.491293e+01    9.179523e-01
  2.502406e+01    9.005446e-01
  2.513519e+01    9.149666e-01
  2.524632e+01    9.405704e-01
  2.535745e+01    9.693046e-01
  2.546858e+01    1.041062e+00
  2.557971e+01    1.175796e+00
  2.569083e+01    1.483849e+00
  2.580196e+01    2.772341e+00
  2.591309e+01    6.356133e+00
  2.602422e+01    5.366534e+00
  2.613535e+01    2.151416e+00
  2.624648e+01    1.361303e+00
  2.635761e+01    1.095362e+00
  2.646874e+01    1.010985e+00
  2.657987e+01    9.942583e-01
  2.669100e+01    9.403386e-01
  2.680212e+01    1.000118e+00
  2.691325e+01    1.009669e+00
  2.702438e+01    1.151815e+00
  2.713551e+01    1.741802e+00
  2.724664e+01    2.098511e+00
  2.735777e+01    1.288354e+00
  2.746890e+01    1.019207e+00
  2.758003e+01    9.346477e-01
  2.769116e+01    9.038992e-01
  2.780229e+01    8.916210e-01
  2.791342e+01    8.649614e-01
  2.802454e+01    8.831522e-01
  2.813567e+01    8.865744e-01
  2.824680e+01    8.560133e-01
  2.835793e+01    8.375693e-01
  2.846906e+01    8.352020e-01
  2.858019e+01    8.469310e-01
  2.869132e+01    8.173579e-01
  2.880245e+01    8.404289e-01
  2.891358e+01    8.089029e-01
  2.902471e+01    8.202892e-01
  2.913583e+01    8.131105e-01
  2.924696e+01    8.198240e-01
  2.935809e+01    8.107359e-01
  2.946922e+01    8.172765e-01
  2.958035e+01    8.138619e-01
  2.969148e+01    7.912807e-01
  2.980261e+01    7.909151e-01
  2.991374e+01    7.850240e-01
  3.002487e+01    8.104764e-01
  3.013600e+01    8.030274e-01
  3.024712e+01    8.090611e-01
  3.035825e+01    7.836481e-01
  3.046938e+01    7.722892e-01
  3.058051e+01    8.004862e-01
  3.069164e+01    7.873335e-01
  3.080277e+01    7.707500e-01
  3.091390e+01    7.837889e-01
  3.102503e+01    8.084559e-01
  3.113616e+01    8.060193e-01
  3.124729e+01    7.912203e-01
  3.135841e+01    7.982566e-01
  3.146954e+01    8.146899e-01
  3.158067e+01    8.842750e-01
  3.169180e+01    9.888256e-01
  3.180293e+01    1.431139e+00
  3.191406e+01    2.109039e+00
  3.202519e+01    1.340517e+00
  3.213632e+01    9.322162e-01
  3.224745e+01    8.100376e-01
  3.235858e+01    7.774589e-01
  3.246970e+01    7.492714e-01
  3.254908e+01    7.623492e-01