File: XRD/2024-07-27_002_Ru-CGO-ex_Activtation_ramp_000002_data_000079.dat
# == pyFAI calibration ==
# Distance Sample to Detector: 0.4 m
# PONI: 9.750e-02, 1.135e-01 m
# Rotations: -0.000175 0.000000 -0.000000 rad
#
# == Fit2d calibration ==
# Distance Sample-beamCenter: 400.000 mm
# Center: x=1514.000, y=1300.000 pix
# Tilt: 0.010 deg  TiltPlanRot: 0.010 deg
#
# Detector Detector	 Spline= None	 PixelSize= 7.500e-05, 7.500e-05 m
#    Detector has a mask: False
#    Detector has a dark current: False
#    detector has a flat field: False
#
# Wavelength: 6.888e-11 m
# Mask applied: user provided
# Dark current applied: False
# Flat field applied: False
# Polarization factor: 0.99
# Normalization factor: 1.0
# --> /home/myspot/data/2024_07_Rosario/Ru-CGO-ex/2024-07-27_002_Ru-CGO-ex_Activtation_ramp_000002_data_000079.dat
#       q_nm^-1             I
  2.003187e-02    0.000000e+00
  1.311609e-01    2.918525e-02
  2.422899e-01    5.657835e-02
  3.534189e-01    4.900444e-02
  4.645479e-01    4.975404e-02
  5.756770e-01    5.564824e-02
  6.868060e-01    3.074068e-02
  7.979350e-01    1.617853e-01
  9.090640e-01    5.188215e-01
  1.020193e+00    1.189120e+00
  1.131322e+00    1.396134e+00
  1.242451e+00    2.253684e+00
  1.353580e+00    2.516001e+00
  1.464709e+00    2.996246e+00
  1.575838e+00    3.013281e+00
  1.686967e+00    2.631990e+00
  1.798096e+00    2.784428e+00
  1.909225e+00    2.800269e+00
  2.020354e+00    2.747370e+00
  2.131483e+00    2.739003e+00
  2.242612e+00    2.742970e+00
  2.353741e+00    2.779554e+00
  2.464870e+00    2.753178e+00
  2.575999e+00    2.865224e+00
  2.687128e+00    2.803732e+00
  2.798257e+00    2.756341e+00
  2.909386e+00    2.806662e+00
  3.020515e+00    2.843611e+00
  3.131644e+00    2.860124e+00
  3.242773e+00    2.924300e+00
  3.353902e+00    2.981086e+00
  3.465031e+00    2.922878e+00
  3.576160e+00    3.020778e+00
  3.687289e+00    2.924858e+00
  3.798418e+00    2.893847e+00
  3.909547e+00    2.981551e+00
  4.020676e+00    3.015886e+00
  4.131806e+00    3.032700e+00
  4.242935e+00    2.990374e+00
  4.354064e+00    3.067313e+00
  4.465193e+00    2.985843e+00
  4.576322e+00    3.111977e+00
  4.687451e+00    3.094322e+00
  4.798580e+00    3.001005e+00
  4.909709e+00    3.157186e+00
  5.020838e+00    3.092826e+00
  5.131967e+00    3.073464e+00
  5.243096e+00    3.097296e+00
  5.354225e+00    3.067655e+00
  5.465354e+00    3.026344e+00
  5.576483e+00    3.072097e+00
  5.687612e+00    3.069141e+00
  5.798741e+00    3.032411e+00
  5.909870e+00    2.990736e+00
  6.020999e+00    2.970705e+00
  6.132128e+00    3.100296e+00
  6.243257e+00    3.064030e+00
  6.354386e+00    3.037493e+00
  6.465515e+00    3.018066e+00
  6.576644e+00    2.963585e+00
  6.687773e+00    3.003729e+00
  6.798902e+00    3.038380e+00
  6.910031e+00    2.963866e+00
  7.021160e+00    2.982474e+00
  7.132289e+00    2.918558e+00
  7.243418e+00    3.018733e+00
  7.354547e+00    2.946429e+00
  7.465676e+00    2.945115e+00
  7.576805e+00    2.912238e+00
  7.687934e+00    2.934505e+00
  7.799063e+00    2.863320e+00
  7.910192e+00    2.958571e+00
  8.021321e+00    2.963369e+00
  8.132450e+00    2.908501e+00
  8.243579e+00    2.915773e+00
  8.354708e+00    2.841433e+00
  8.465837e+00    2.840755e+00
  8.576966e+00    2.847231e+00
  8.688095e+00    2.873561e+00
  8.799224e+00    2.796969e+00
  8.910353e+00    2.799103e+00
  9.021482e+00    2.798837e+00
  9.132611e+00    2.835279e+00
  9.243740e+00    2.793970e+00
  9.354869e+00    2.761823e+00
  9.465998e+00    2.799346e+00
  9.577127e+00    2.747156e+00
  9.688256e+00    2.763123e+00
  9.799385e+00    2.690066e+00
  9.910514e+00    2.709852e+00
  1.002164e+01    2.680618e+00
  1.013277e+01    2.642060e+00
  1.024390e+01    2.626576e+00
  1.035503e+01    2.601177e+00
  1.046616e+01    2.547493e+00
  1.057729e+01    2.586641e+00
  1.068842e+01    2.543643e+00
  1.079955e+01    2.552912e+00
  1.091068e+01    2.549271e+00
  1.102180e+01    2.484053e+00
  1.113293e+01    2.481461e+00
  1.124406e+01    2.441646e+00
  1.135519e+01    2.413784e+00
  1.146632e+01    2.367465e+00
  1.157745e+01    2.365322e+00
  1.168858e+01    2.355596e+00
  1.179971e+01    2.377863e+00
  1.191084e+01    2.384848e+00
  1.202197e+01    2.295135e+00
  1.213309e+01    2.323451e+00
  1.224422e+01    2.364954e+00
  1.235535e+01    2.294474e+00
  1.246648e+01    2.316692e+00
  1.257761e+01    2.366575e+00
  1.268874e+01    2.438061e+00
  1.279987e+01    2.638433e+00
  1.291100e+01    3.291158e+00
  1.302213e+01    6.029429e+00
  1.313326e+01    1.493447e+01
  1.324438e+01    1.388875e+01
  1.335551e+01    4.851339e+00
  1.346664e+01    2.998638e+00
  1.357777e+01    2.461805e+00
  1.368890e+01    2.330434e+00
  1.380003e+01    2.137293e+00
  1.391116e+01    2.118487e+00
  1.402229e+01    1.997125e+00
  1.413342e+01    1.976144e+00
  1.424455e+01    2.031581e+00
  1.435568e+01    1.956561e+00
  1.446680e+01    1.918232e+00
  1.457793e+01    1.917797e+00
  1.468906e+01    1.932754e+00
  1.480019e+01    1.923251e+00
  1.491132e+01    1.931397e+00
  1.502245e+01    2.144523e+00
  1.513358e+01    3.357454e+00
  1.524471e+01    5.856947e+00
  1.535584e+01    4.346054e+00
  1.546697e+01    2.373926e+00
  1.557809e+01    1.918153e+00
  1.568922e+01    1.759338e+00
  1.580035e+01    1.676693e+00
  1.591148e+01    1.669312e+00
  1.602261e+01    1.606645e+00
  1.613374e+01    1.595096e+00
  1.624487e+01    1.543744e+00
  1.635600e+01    1.522452e+00
  1.646713e+01    1.533797e+00
  1.657826e+01    1.458407e+00
  1.668938e+01    1.464116e+00
  1.680051e+01    1.455770e+00
  1.691164e+01    1.428500e+00
  1.702277e+01    1.398787e+00
  1.713390e+01    1.384090e+00
  1.724503e+01    1.406525e+00
  1.735616e+01    1.381966e+00
  1.746729e+01    1.355530e+00
  1.757842e+01    1.343142e+00
  1.768955e+01    1.367678e+00
  1.780067e+01    1.333765e+00
  1.791180e+01    1.347674e+00
  1.802293e+01    1.322979e+00
  1.813406e+01    1.284655e+00
  1.824519e+01    1.280963e+00
  1.835632e+01    1.265869e+00
  1.846745e+01    1.244653e+00
  1.857858e+01    1.247774e+00
  1.868971e+01    1.230315e+00
  1.880084e+01    1.200307e+00
  1.891196e+01    1.239260e+00
  1.902309e+01    1.208189e+00
  1.913422e+01    1.177712e+00
  1.924535e+01    1.165007e+00
  1.935648e+01    1.137447e+00
  1.946761e+01    1.157208e+00
  1.957874e+01    1.162069e+00
  1.968987e+01    1.125290e+00
  1.980100e+01    1.126815e+00
  1.991213e+01    1.127993e+00
  2.002325e+01    1.131999e+00
  2.013438e+01    1.108127e+00
  2.024551e+01    1.126011e+00
  2.035664e+01    1.081830e+00
  2.046777e+01    1.059062e+00
  2.057890e+01    1.069479e+00
  2.069003e+01    1.070088e+00
  2.080116e+01    1.098047e+00
  2.091229e+01    1.088192e+00
  2.102342e+01    1.060853e+00
  2.113455e+01    1.077236e+00
  2.124567e+01    1.103683e+00
  2.135680e+01    1.141525e+00
  2.146793e+01    1.223988e+00
  2.157906e+01    1.454903e+00
  2.169019e+01    2.193697e+00
  2.180132e+01    5.181434e+00
  2.191245e+01    1.010663e+01
  2.202358e+01    4.823304e+00
  2.213471e+01    2.015818e+00
  2.224584e+01    1.362468e+00
  2.235696e+01    1.164237e+00
  2.246809e+01    1.061885e+00
  2.257922e+01    1.000762e+00
  2.269035e+01    9.494755e-01
  2.280148e+01    9.336074e-01
  2.291261e+01    8.966656e-01
  2.302374e+01    8.777339e-01
  2.313487e+01    8.937909e-01
  2.324600e+01    8.646715e-01
  2.335713e+01    8.664036e-01
  2.346825e+01    8.514190e-01
  2.357938e+01    8.338043e-01
  2.369051e+01    8.237716e-01
  2.380164e+01    7.995298e-01
  2.391277e+01    8.121061e-01
  2.402390e+01    7.882028e-01
  2.413503e+01    8.069898e-01
  2.424616e+01    7.724068e-01
  2.435729e+01    7.868589e-01
  2.446842e+01    7.946097e-01
  2.457954e+01    7.819949e-01
  2.469067e+01    8.062137e-01
  2.480180e+01    7.745419e-01
  2.491293e+01    7.617164e-01
  2.502406e+01    7.936244e-01
  2.513519e+01    8.107879e-01
  2.524632e+01    8.416139e-01
  2.535745e+01    8.862019e-01
  2.546858e+01    9.496796e-01
  2.557971e+01    1.026357e+00
  2.569083e+01    1.342936e+00
  2.580196e+01    2.374029e+00
  2.591309e+01    5.945495e+00
  2.602422e+01    7.581463e+00
  2.613535e+01    2.840139e+00
  2.624648e+01    1.491857e+00
  2.635761e+01    1.094873e+00
  2.646874e+01    9.854457e-01
  2.657987e+01    9.178714e-01
  2.669100e+01    8.997272e-01
  2.680212e+01    9.276252e-01
  2.691325e+01    9.356275e-01
  2.702438e+01    1.050286e+00
  2.713551e+01    1.510487e+00
  2.724664e+01    2.442538e+00
  2.735777e+01    1.510900e+00
  2.746890e+01    1.018808e+00
  2.758003e+01    8.729646e-01
  2.769116e+01    8.290489e-01
  2.780229e+01    8.098204e-01
  2.791342e+01    7.688662e-01
  2.802454e+01    7.774864e-01
  2.813567e+01    7.752142e-01
  2.824680e+01    7.793998e-01
  2.835793e+01    7.718825e-01
  2.846906e+01    7.829660e-01
  2.858019e+01    7.562185e-01
  2.869132e+01    7.711468e-01
  2.880245e+01    7.107158e-01
  2.891358e+01    7.419195e-01
  2.902471e+01    7.619004e-01
  2.913583e+01    7.338474e-01
  2.924696e+01    7.368256e-01
  2.935809e+01    7.224651e-01
  2.946922e+01    7.480872e-01
  2.958035e+01    7.278894e-01
  2.969148e+01    7.159819e-01
  2.980261e+01    6.936808e-01
  2.991374e+01    7.229570e-01
  3.002487e+01    7.256191e-01
  3.013600e+01    7.252840e-01
  3.024712e+01    7.107673e-01
  3.035825e+01    7.033329e-01
  3.046938e+01    7.255086e-01
  3.058051e+01    7.174206e-01
  3.069164e+01    7.033324e-01
  3.080277e+01    7.248140e-01
  3.091390e+01    7.131712e-01
  3.102503e+01    7.120005e-01
  3.113616e+01    7.321007e-01
  3.124729e+01    7.379895e-01
  3.135841e+01    7.542448e-01
  3.146954e+01    7.539746e-01
  3.158067e+01    7.832278e-01
  3.169180e+01    9.012506e-01
  3.180293e+01    1.256986e+00
  3.191406e+01    2.304493e+00
  3.202519e+01    1.673849e+00
  3.213632e+01    9.893069e-01
  3.224745e+01    8.223704e-01
  3.235858e+01    7.806824e-01
  3.246970e+01    7.650379e-01
  3.254908e+01    6.996411e-01