File: XRD/2024-07-27_001_Ru-CGO-ex_Pristine_Rt_000058_data_000001.dat
# == pyFAI calibration ==
# Distance Sample to Detector: 0.4 m
# PONI: 9.750e-02, 1.135e-01 m
# Rotations: -0.000175 0.000000 -0.000000 rad
#
# == Fit2d calibration ==
# Distance Sample-beamCenter: 400.000 mm
# Center: x=1514.000, y=1300.000 pix
# Tilt: 0.010 deg  TiltPlanRot: 0.010 deg
#
# Detector Detector	 Spline= None	 PixelSize= 7.500e-05, 7.500e-05 m
#    Detector has a mask: False
#    Detector has a dark current: False
#    detector has a flat field: False
#
# Wavelength: 6.888e-11 m
# Mask applied: user provided
# Dark current applied: False
# Flat field applied: False
# Polarization factor: 0.99
# Normalization factor: 1.0
# --> /home/myspot/data/2024_07_Rosario/2024-07-27_001_Ru-CGO-ex_Pristine_Rt_000058_data_000001.dat
#       q_nm^-1             I
  2.003187e-02    1.542462e-01
  1.311609e-01    7.862027e-02
  2.422899e-01    7.011883e-03
  3.534189e-01    4.082690e-02
  4.645479e-01    7.635047e-02
  5.756770e-01    4.621428e-02
  6.868060e-01    4.525052e-02
  7.979350e-01    1.482294e-01
  9.090640e-01    6.314689e-01
  1.020193e+00    1.276464e+00
  1.131322e+00    1.677123e+00
  1.242451e+00    2.508740e+00
  1.353580e+00    3.049226e+00
  1.464709e+00    3.118599e+00
  1.575838e+00    3.465454e+00
  1.686967e+00    3.241695e+00
  1.798096e+00    3.242606e+00
  1.909225e+00    3.218458e+00
  2.020354e+00    2.981566e+00
  2.131483e+00    3.028646e+00
  2.242612e+00    3.102168e+00
  2.353741e+00    3.180599e+00
  2.464870e+00    3.258770e+00
  2.575999e+00    3.310360e+00
  2.687128e+00    3.255576e+00
  2.798257e+00    3.314086e+00
  2.909386e+00    3.323097e+00
  3.020515e+00    3.382837e+00
  3.131644e+00    3.333855e+00
  3.242773e+00    3.281155e+00
  3.353902e+00    3.328605e+00
  3.465031e+00    3.443431e+00
  3.576160e+00    3.352979e+00
  3.687289e+00    3.492485e+00
  3.798418e+00    3.406478e+00
  3.909547e+00    3.420983e+00
  4.020676e+00    3.443481e+00
  4.131806e+00    3.532624e+00
  4.242935e+00    3.500495e+00
  4.354064e+00    3.507558e+00
  4.465193e+00    3.518548e+00
  4.576322e+00    3.578125e+00
  4.687451e+00    3.523018e+00
  4.798580e+00    3.640267e+00
  4.909709e+00    3.584064e+00
  5.020838e+00    3.557613e+00
  5.131967e+00    3.632579e+00
  5.243096e+00    3.554290e+00
  5.354225e+00    3.621488e+00
  5.465354e+00    3.633261e+00
  5.576483e+00    3.503666e+00
  5.687612e+00    3.545835e+00
  5.798741e+00    3.583750e+00
  5.909870e+00    3.523758e+00
  6.020999e+00    3.561343e+00
  6.132128e+00    3.591284e+00
  6.243257e+00    3.563847e+00
  6.354386e+00    3.488019e+00
  6.465515e+00    3.456673e+00
  6.576644e+00    3.480738e+00
  6.687773e+00    3.546267e+00
  6.798902e+00    3.480551e+00
  6.910031e+00    3.514810e+00
  7.021160e+00    3.527482e+00
  7.132289e+00    3.463040e+00
  7.243418e+00    3.500089e+00
  7.354547e+00    3.402121e+00
  7.465676e+00    3.511395e+00
  7.576805e+00    3.460678e+00
  7.687934e+00    3.491324e+00
  7.799063e+00    3.449477e+00
  7.910192e+00    3.398593e+00
  8.021321e+00    3.344188e+00
  8.132450e+00    3.434940e+00
  8.243579e+00    3.471636e+00
  8.354708e+00    3.367250e+00
  8.465837e+00    3.315032e+00
  8.576966e+00    3.352736e+00
  8.688095e+00    3.308283e+00
  8.799224e+00    3.316939e+00
  8.910353e+00    3.283246e+00
  9.021482e+00    3.304731e+00
  9.132611e+00    3.291085e+00
  9.243740e+00    3.223458e+00
  9.354869e+00    3.247901e+00
  9.465998e+00    3.183769e+00
  9.577127e+00    3.232917e+00
  9.688256e+00    3.183151e+00
  9.799385e+00    3.104250e+00
  9.910514e+00    3.115260e+00
  1.002164e+01    3.167726e+00
  1.013277e+01    3.110027e+00
  1.024390e+01    3.019253e+00
  1.035503e+01    3.025808e+00
  1.046616e+01    2.964518e+00
  1.057729e+01    2.996256e+00
  1.068842e+01    2.954189e+00
  1.079955e+01    2.931268e+00
  1.091068e+01    2.982288e+00
  1.102180e+01    2.861359e+00
  1.113293e+01    2.855546e+00
  1.124406e+01    2.815925e+00
  1.135519e+01    2.754589e+00
  1.146632e+01    2.853952e+00
  1.157745e+01    2.729874e+00
  1.168858e+01    2.697193e+00
  1.179971e+01    2.759684e+00
  1.191084e+01    2.789688e+00
  1.202197e+01    2.727052e+00
  1.213309e+01    2.671139e+00
  1.224422e+01    2.709318e+00
  1.235535e+01    2.671253e+00
  1.246648e+01    2.683423e+00
  1.257761e+01    2.806038e+00
  1.268874e+01    2.930340e+00
  1.279987e+01    3.059484e+00
  1.291100e+01    3.818771e+00
  1.302213e+01    6.957781e+00
  1.313326e+01    1.775683e+01
  1.324438e+01    1.740871e+01
  1.335551e+01    6.313542e+00
  1.346664e+01    3.790114e+00
  1.357777e+01    3.052252e+00
  1.368890e+01    2.816622e+00
  1.380003e+01    2.588203e+00
  1.391116e+01    2.549165e+00
  1.402229e+01    2.436808e+00
  1.413342e+01    2.380088e+00
  1.424455e+01    2.383464e+00
  1.435568e+01    2.317838e+00
  1.446680e+01    2.307446e+00
  1.457793e+01    2.226933e+00
  1.468906e+01    2.185985e+00
  1.480019e+01    2.241839e+00
  1.491132e+01    2.290802e+00
  1.502245e+01    2.523989e+00
  1.513358e+01    3.810700e+00
  1.524471e+01    7.022075e+00
  1.535584e+01    5.388022e+00
  1.546697e+01    2.956251e+00
  1.557809e+01    2.340401e+00
  1.568922e+01    2.115635e+00
  1.580035e+01    2.042885e+00
  1.591148e+01    1.937850e+00
  1.602261e+01    1.936385e+00
  1.613374e+01    1.920799e+00
  1.624487e+01    1.831306e+00
  1.635600e+01    1.805673e+00
  1.646713e+01    1.783857e+00
  1.657826e+01    1.755139e+00
  1.668938e+01    1.713249e+00
  1.680051e+01    1.698658e+00
  1.691164e+01    1.708440e+00
  1.702277e+01    1.695102e+00
  1.713390e+01    1.659962e+00
  1.724503e+01    1.657186e+00
  1.735616e+01    1.572950e+00
  1.746729e+01    1.602997e+00
  1.757842e+01    1.544045e+00
  1.768955e+01    1.586659e+00
  1.780067e+01    1.527256e+00
  1.791180e+01    1.490317e+00
  1.802293e+01    1.507205e+00
  1.813406e+01    1.484810e+00
  1.824519e+01    1.474705e+00
  1.835632e+01    1.476581e+00
  1.846745e+01    1.459790e+00
  1.857858e+01    1.433781e+00
  1.868971e+01    1.443699e+00
  1.880084e+01    1.405286e+00
  1.891196e+01    1.372789e+00
  1.902309e+01    1.357033e+00
  1.913422e+01    1.362134e+00
  1.924535e+01    1.371644e+00
  1.935648e+01    1.327731e+00
  1.946761e+01    1.346160e+00
  1.957874e+01    1.325997e+00
  1.968987e+01    1.312076e+00
  1.980100e+01    1.277867e+00
  1.991213e+01    1.293046e+00
  2.002325e+01    1.294067e+00
  2.013438e+01    1.258187e+00
  2.024551e+01    1.279081e+00
  2.035664e+01    1.239654e+00
  2.046777e+01    1.245075e+00
  2.057890e+01    1.253979e+00
  2.069003e+01    1.242305e+00
  2.080116e+01    1.227269e+00
  2.091229e+01    1.232244e+00
  2.102342e+01    1.239843e+00
  2.113455e+01    1.216936e+00
  2.124567e+01    1.285878e+00
  2.135680e+01    1.302307e+00
  2.146793e+01    1.417373e+00
  2.157906e+01    1.629468e+00
  2.169019e+01    2.491621e+00
  2.180132e+01    5.963653e+00
  2.191245e+01    1.238343e+01
  2.202358e+01    6.553248e+00
  2.213471e+01    2.876954e+00
  2.224584e+01    1.836778e+00
  2.235696e+01    1.450888e+00
  2.246809e+01    1.336861e+00
  2.257922e+01    1.249244e+00
  2.269035e+01    1.171508e+00
  2.280148e+01    1.119946e+00
  2.291261e+01    1.087384e+00
  2.302374e+01    1.074425e+00
  2.313487e+01    1.065351e+00
  2.324600e+01    1.012284e+00
  2.335713e+01    9.852755e-01
  2.346825e+01    1.005998e+00
  2.357938e+01    1.022008e+00
  2.369051e+01    9.595131e-01
  2.380164e+01    9.577253e-01
  2.391277e+01    9.437982e-01
  2.402390e+01    9.089263e-01
  2.413503e+01    9.002712e-01
  2.424616e+01    8.980165e-01
  2.435729e+01    9.359623e-01
  2.446842e+01    9.149976e-01
  2.457954e+01    9.024047e-01
  2.469067e+01    9.258429e-01
  2.480180e+01    9.016556e-01
  2.491293e+01    9.323352e-01
  2.502406e+01    9.185941e-01
  2.513519e+01    9.217624e-01
  2.524632e+01    9.626357e-01
  2.535745e+01    1.017932e+00
  2.546858e+01    1.096023e+00
  2.557971e+01    1.191719e+00
  2.569083e+01    1.514187e+00
  2.580196e+01    2.636893e+00
  2.591309e+01    6.840499e+00
  2.602422e+01    9.470981e+00
  2.613535e+01    3.977164e+00
  2.624648e+01    2.079017e+00
  2.635761e+01    1.509864e+00
  2.646874e+01    1.279953e+00
  2.657987e+01    1.205152e+00
  2.669100e+01    1.177489e+00
  2.680212e+01    1.131397e+00
  2.691325e+01    1.131638e+00
  2.702438e+01    1.243630e+00
  2.713551e+01    1.783455e+00
  2.724664e+01    2.864689e+00
  2.735777e+01    1.946926e+00
  2.746890e+01    1.313449e+00
  2.758003e+01    1.126560e+00
  2.769116e+01    1.014539e+00
  2.780229e+01    9.922528e-01
  2.791342e+01    9.526005e-01
  2.802454e+01    9.485664e-01
  2.813567e+01    9.325090e-01
  2.824680e+01    9.421173e-01
  2.835793e+01    9.045458e-01
  2.846906e+01    9.146944e-01
  2.858019e+01    8.890418e-01
  2.869132e+01    8.788420e-01
  2.880245e+01    8.649548e-01
  2.891358e+01    8.858146e-01
  2.902471e+01    8.871605e-01
  2.913583e+01    8.684871e-01
  2.924696e+01    8.571126e-01
  2.935809e+01    8.402353e-01
  2.946922e+01    8.475231e-01
  2.958035e+01    8.642329e-01
  2.969148e+01    8.454444e-01
  2.980261e+01    8.526239e-01
  2.991374e+01    8.240462e-01
  3.002487e+01    8.659797e-01
  3.013600e+01    8.181042e-01
  3.024712e+01    8.231423e-01
  3.035825e+01    8.195548e-01
  3.046938e+01    8.208272e-01
  3.058051e+01    8.032566e-01
  3.069164e+01    8.237348e-01
  3.080277e+01    8.166926e-01
  3.091390e+01    8.185073e-01
  3.102503e+01    8.273031e-01
  3.113616e+01    8.474633e-01
  3.124729e+01    7.998565e-01
  3.135841e+01    8.323814e-01
  3.146954e+01    8.626162e-01
  3.158067e+01    9.108728e-01
  3.169180e+01    1.020141e+00
  3.180293e+01    1.447588e+00
  3.191406e+01    2.663754e+00
  3.202519e+01    2.227928e+00
  3.213632e+01    1.328676e+00
  3.224745e+01    1.012615e+00
  3.235858e+01    9.078624e-01
  3.246970e+01    8.871165e-01
  3.254908e+01    8.808231e-01