File: XRD/2024-07-27_002_Ru-CGO-ex_Activtation_ramp_000002_data_000110.dat
# == pyFAI calibration ==
# Distance Sample to Detector: 0.4 m
# PONI: 9.750e-02, 1.135e-01 m
# Rotations: -0.000175 0.000000 -0.000000 rad
#
# == Fit2d calibration ==
# Distance Sample-beamCenter: 400.000 mm
# Center: x=1514.000, y=1300.000 pix
# Tilt: 0.010 deg  TiltPlanRot: 0.010 deg
#
# Detector Detector	 Spline= None	 PixelSize= 7.500e-05, 7.500e-05 m
#    Detector has a mask: False
#    Detector has a dark current: False
#    detector has a flat field: False
#
# Wavelength: 6.888e-11 m
# Mask applied: user provided
# Dark current applied: False
# Flat field applied: False
# Polarization factor: 0.99
# Normalization factor: 1.0
# --> /home/myspot/data/2024_07_Rosario/Ru-CGO-ex/2024-07-27_002_Ru-CGO-ex_Activtation_ramp_000002_data_000110.dat
#       q_nm^-1             I
  2.003187e-02    1.647344e-01
  1.311609e-01    2.671539e-03
  2.422899e-01    3.209206e-02
  3.534189e-01    5.435245e-02
  4.645479e-01    3.513635e-02
  5.756770e-01    2.762394e-02
  6.868060e-01    4.417037e-02
  7.979350e-01    1.192284e-01
  9.090640e-01    5.292295e-01
  1.020193e+00    1.046429e+00
  1.131322e+00    1.472990e+00
  1.242451e+00    2.207308e+00
  1.353580e+00    2.511965e+00
  1.464709e+00    2.850754e+00
  1.575838e+00    2.881287e+00
  1.686967e+00    2.752635e+00
  1.798096e+00    2.838388e+00
  1.909225e+00    2.706790e+00
  2.020354e+00    2.778924e+00
  2.131483e+00    2.805484e+00
  2.242612e+00    2.699488e+00
  2.353741e+00    2.638303e+00
  2.464870e+00    2.709861e+00
  2.575999e+00    2.799101e+00
  2.687128e+00    2.719452e+00
  2.798257e+00    2.723258e+00
  2.909386e+00    2.742858e+00
  3.020515e+00    2.779811e+00
  3.131644e+00    2.860077e+00
  3.242773e+00    2.762496e+00
  3.353902e+00    2.819267e+00
  3.465031e+00    2.952240e+00
  3.576160e+00    2.855491e+00
  3.687289e+00    2.991743e+00
  3.798418e+00    2.822361e+00
  3.909547e+00    2.980071e+00
  4.020676e+00    3.051634e+00
  4.131806e+00    2.941344e+00
  4.242935e+00    3.005920e+00
  4.354064e+00    3.074914e+00
  4.465193e+00    3.042502e+00
  4.576322e+00    3.064805e+00
  4.687451e+00    3.017004e+00
  4.798580e+00    2.987351e+00
  4.909709e+00    3.019719e+00
  5.020838e+00    3.121850e+00
  5.131967e+00    3.064348e+00
  5.243096e+00    3.114743e+00
  5.354225e+00    3.036327e+00
  5.465354e+00    3.089791e+00
  5.576483e+00    3.019746e+00
  5.687612e+00    3.080141e+00
  5.798741e+00    3.033391e+00
  5.909870e+00    3.022481e+00
  6.020999e+00    2.982812e+00
  6.132128e+00    3.017125e+00
  6.243257e+00    2.956055e+00
  6.354386e+00    3.000427e+00
  6.465515e+00    2.922538e+00
  6.576644e+00    2.974633e+00
  6.687773e+00    3.051802e+00
  6.798902e+00    2.985108e+00
  6.910031e+00    2.931273e+00
  7.021160e+00    2.950077e+00
  7.132289e+00    3.001813e+00
  7.243418e+00    2.895104e+00
  7.354547e+00    2.943574e+00
  7.465676e+00    2.881533e+00
  7.576805e+00    2.970872e+00
  7.687934e+00    2.918229e+00
  7.799063e+00    2.872792e+00
  7.910192e+00    2.919521e+00
  8.021321e+00    2.896303e+00
  8.132450e+00    2.914603e+00
  8.243579e+00    2.871634e+00
  8.354708e+00    2.865072e+00
  8.465837e+00    2.789229e+00
  8.576966e+00    2.839542e+00
  8.688095e+00    2.820313e+00
  8.799224e+00    2.818400e+00
  8.910353e+00    2.792041e+00
  9.021482e+00    2.804644e+00
  9.132611e+00    2.762117e+00
  9.243740e+00    2.718099e+00
  9.354869e+00    2.727629e+00
  9.465998e+00    2.696737e+00
  9.577127e+00    2.740302e+00
  9.688256e+00    2.672221e+00
  9.799385e+00    2.695751e+00
  9.910514e+00    2.660645e+00
  1.002164e+01    2.615613e+00
  1.013277e+01    2.615249e+00
  1.024390e+01    2.563361e+00
  1.035503e+01    2.559675e+00
  1.046616e+01    2.529208e+00
  1.057729e+01    2.530785e+00
  1.068842e+01    2.541223e+00
  1.079955e+01    2.497026e+00
  1.091068e+01    2.461563e+00
  1.102180e+01    2.467621e+00
  1.113293e+01    2.446262e+00
  1.124406e+01    2.378605e+00
  1.135519e+01    2.365537e+00
  1.146632e+01    2.350457e+00
  1.157745e+01    2.372046e+00
  1.168858e+01    2.328191e+00
  1.179971e+01    2.269229e+00
  1.191084e+01    2.256834e+00
  1.202197e+01    2.321106e+00
  1.213309e+01    2.312048e+00
  1.224422e+01    2.227168e+00
  1.235535e+01    2.307938e+00
  1.246648e+01    2.285817e+00
  1.257761e+01    2.321085e+00
  1.268874e+01    2.417623e+00
  1.279987e+01    2.617289e+00
  1.291100e+01    3.244471e+00
  1.302213e+01    5.993711e+00
  1.313326e+01    1.464624e+01
  1.324438e+01    1.249185e+01
  1.335551e+01    4.457732e+00
  1.346664e+01    2.832431e+00
  1.357777e+01    2.394101e+00
  1.368890e+01    2.272427e+00
  1.380003e+01    2.095093e+00
  1.391116e+01    2.066429e+00
  1.402229e+01    2.011317e+00
  1.413342e+01    1.964142e+00
  1.424455e+01    1.975626e+00
  1.435568e+01    1.916810e+00
  1.446680e+01    1.867134e+00
  1.457793e+01    1.918570e+00
  1.468906e+01    1.879043e+00
  1.480019e+01    1.916398e+00
  1.491132e+01    1.929478e+00
  1.502245e+01    2.199130e+00
  1.513358e+01    3.395658e+00
  1.524471e+01    5.735394e+00
  1.535584e+01    3.992386e+00
  1.546697e+01    2.243143e+00
  1.557809e+01    1.891570e+00
  1.568922e+01    1.713240e+00
  1.580035e+01    1.671813e+00
  1.591148e+01    1.622539e+00
  1.602261e+01    1.606771e+00
  1.613374e+01    1.553862e+00
  1.624487e+01    1.535464e+00
  1.635600e+01    1.521409e+00
  1.646713e+01    1.501866e+00
  1.657826e+01    1.489304e+00
  1.668938e+01    1.460472e+00
  1.680051e+01    1.435661e+00
  1.691164e+01    1.431925e+00
  1.702277e+01    1.430327e+00
  1.713390e+01    1.390059e+00
  1.724503e+01    1.388604e+00
  1.735616e+01    1.373111e+00
  1.746729e+01    1.335514e+00
  1.757842e+01    1.334874e+00
  1.768955e+01    1.331304e+00
  1.780067e+01    1.312316e+00
  1.791180e+01    1.334254e+00
  1.802293e+01    1.302284e+00
  1.813406e+01    1.300910e+00
  1.824519e+01    1.251496e+00
  1.835632e+01    1.231394e+00
  1.846745e+01    1.246765e+00
  1.857858e+01    1.197640e+00
  1.868971e+01    1.191818e+00
  1.880084e+01    1.210289e+00
  1.891196e+01    1.190862e+00
  1.902309e+01    1.181295e+00
  1.913422e+01    1.155442e+00
  1.924535e+01    1.153792e+00
  1.935648e+01    1.145498e+00
  1.946761e+01    1.147643e+00
  1.957874e+01    1.124994e+00
  1.968987e+01    1.113866e+00
  1.980100e+01    1.113817e+00
  1.991213e+01    1.136631e+00
  2.002325e+01    1.105771e+00
  2.013438e+01    1.077767e+00
  2.024551e+01    1.105964e+00
  2.035664e+01    1.077112e+00
  2.046777e+01    1.089907e+00
  2.057890e+01    1.062524e+00
  2.069003e+01    1.051313e+00
  2.080116e+01    1.085561e+00
  2.091229e+01    1.075515e+00
  2.102342e+01    1.049693e+00
  2.113455e+01    1.062315e+00
  2.124567e+01    1.077609e+00
  2.135680e+01    1.123607e+00
  2.146793e+01    1.210700e+00
  2.157906e+01    1.459608e+00
  2.169019e+01    2.226847e+00
  2.180132e+01    5.303219e+00
  2.191245e+01    9.632500e+00
  2.202358e+01    4.185865e+00
  2.213471e+01    1.902191e+00
  2.224584e+01    1.313195e+00
  2.235696e+01    1.122880e+00
  2.246809e+01    1.018475e+00
  2.257922e+01    9.921409e-01
  2.269035e+01    9.468920e-01
  2.280148e+01    9.111543e-01
  2.291261e+01    9.008022e-01
  2.302374e+01    8.977507e-01
  2.313487e+01    8.501322e-01
  2.324600e+01    8.529859e-01
  2.335713e+01    8.520134e-01
  2.346825e+01    8.349047e-01
  2.357938e+01    8.467608e-01
  2.369051e+01    8.185650e-01
  2.380164e+01    8.018165e-01
  2.391277e+01    7.792848e-01
  2.402390e+01    7.779593e-01
  2.413503e+01    7.573844e-01
  2.424616e+01    7.718812e-01
  2.435729e+01    7.868363e-01
  2.446842e+01    7.862858e-01
  2.457954e+01    7.814122e-01
  2.469067e+01    7.856559e-01
  2.480180e+01    8.003816e-01
  2.491293e+01    7.971837e-01
  2.502406e+01    7.834051e-01
  2.513519e+01    8.036257e-01
  2.524632e+01    8.296727e-01
  2.535745e+01    8.772201e-01
  2.546858e+01    9.278073e-01
  2.557971e+01    1.050557e+00
  2.569083e+01    1.345940e+00
  2.580196e+01    2.485754e+00
  2.591309e+01    6.140535e+00
  2.602422e+01    6.761628e+00
  2.613535e+01    2.460770e+00
  2.624648e+01    1.401155e+00
  2.635761e+01    1.071918e+00
  2.646874e+01    9.545569e-01
  2.657987e+01    9.131501e-01
  2.669100e+01    8.699803e-01
  2.680212e+01    8.935664e-01
  2.691325e+01    9.165022e-01
  2.702438e+01    1.055193e+00
  2.713551e+01    1.589095e+00
  2.724664e+01    2.328505e+00
  2.735777e+01    1.325347e+00
  2.746890e+01    9.625462e-01
  2.758003e+01    8.598042e-01
  2.769116e+01    8.113819e-01
  2.780229e+01    7.929626e-01
  2.791342e+01    7.942367e-01
  2.802454e+01    7.802567e-01
  2.813567e+01    7.744270e-01
  2.824680e+01    7.648845e-01
  2.835793e+01    7.562678e-01
  2.846906e+01    7.484300e-01
  2.858019e+01    7.538488e-01
  2.869132e+01    7.533173e-01
  2.880245e+01    7.415450e-01
  2.891358e+01    7.229261e-01
  2.902471e+01    7.396852e-01
  2.913583e+01    7.279978e-01
  2.924696e+01    7.196099e-01
  2.935809e+01    7.311848e-01
  2.946922e+01    7.184401e-01
  2.958035e+01    6.987655e-01
  2.969148e+01    7.180704e-01
  2.980261e+01    7.074334e-01
  2.991374e+01    7.083764e-01
  3.002487e+01    7.360003e-01
  3.013600e+01    7.349834e-01
  3.024712e+01    6.984217e-01
  3.035825e+01    6.950013e-01
  3.046938e+01    7.079651e-01
  3.058051e+01    7.227461e-01
  3.069164e+01    7.246140e-01
  3.080277e+01    7.052867e-01
  3.091390e+01    7.238980e-01
  3.102503e+01    7.288730e-01
  3.113616e+01    7.233871e-01
  3.124729e+01    7.321010e-01
  3.135841e+01    7.173735e-01
  3.146954e+01    7.423412e-01
  3.158067e+01    7.970181e-01
  3.169180e+01    9.264338e-01
  3.180293e+01    1.300974e+00
  3.191406e+01    2.292322e+00
  3.202519e+01    1.521850e+00
  3.213632e+01    9.406220e-01
  3.224745e+01    8.076921e-01
  3.235858e+01    7.636510e-01
  3.246970e+01    7.301890e-01
  3.254908e+01    7.176669e-01