File: XRD/2024-07-27_002_Ru-CGO-ex_Activtation_ramp_000002_data_000010.dat
# == pyFAI calibration ==
# Distance Sample to Detector: 0.4 m
# PONI: 9.750e-02, 1.135e-01 m
# Rotations: -0.000175 0.000000 -0.000000 rad
#
# == Fit2d calibration ==
# Distance Sample-beamCenter: 400.000 mm
# Center: x=1514.000, y=1300.000 pix
# Tilt: 0.010 deg  TiltPlanRot: 0.010 deg
#
# Detector Detector	 Spline= None	 PixelSize= 7.500e-05, 7.500e-05 m
#    Detector has a mask: False
#    Detector has a dark current: False
#    detector has a flat field: False
#
# Wavelength: 6.888e-11 m
# Mask applied: user provided
# Dark current applied: False
# Flat field applied: False
# Polarization factor: 0.99
# Normalization factor: 1.0
# --> /home/myspot/data/2024_07_Rosario/Ru-CGO-ex/2024-07-27_002_Ru-CGO-ex_Activtation_ramp_000002_data_000010.dat
#       q_nm^-1             I
  2.003187e-02    0.000000e+00
  1.311609e-01    3.343473e-02
  2.422899e-01    3.547358e-02
  3.534189e-01    1.538516e-02
  4.645479e-01    2.255904e-02
  5.756770e-01    4.034396e-02
  6.868060e-01    4.192536e-02
  7.979350e-01    1.379745e-01
  9.090640e-01    5.553828e-01
  1.020193e+00    1.066075e+00
  1.131322e+00    1.525901e+00
  1.242451e+00    2.225290e+00
  1.353580e+00    2.613922e+00
  1.464709e+00    2.846456e+00
  1.575838e+00    3.220846e+00
  1.686967e+00    2.993016e+00
  1.798096e+00    2.939274e+00
  1.909225e+00    2.752775e+00
  2.020354e+00    2.885134e+00
  2.131483e+00    2.882593e+00
  2.242612e+00    2.913972e+00
  2.353741e+00    2.707568e+00
  2.464870e+00    2.870973e+00
  2.575999e+00    2.782722e+00
  2.687128e+00    2.840188e+00
  2.798257e+00    2.893028e+00
  2.909386e+00    2.893436e+00
  3.020515e+00    2.826572e+00
  3.131644e+00    2.937047e+00
  3.242773e+00    2.934251e+00
  3.353902e+00    2.924697e+00
  3.465031e+00    2.951265e+00
  3.576160e+00    3.042215e+00
  3.687289e+00    3.027006e+00
  3.798418e+00    3.037305e+00
  3.909547e+00    3.034370e+00
  4.020676e+00    2.904189e+00
  4.131806e+00    3.087050e+00
  4.242935e+00    3.059593e+00
  4.354064e+00    3.064140e+00
  4.465193e+00    3.100529e+00
  4.576322e+00    3.029499e+00
  4.687451e+00    3.141484e+00
  4.798580e+00    3.105338e+00
  4.909709e+00    3.097402e+00
  5.020838e+00    3.146958e+00
  5.131967e+00    3.145452e+00
  5.243096e+00    3.132590e+00
  5.354225e+00    3.134296e+00
  5.465354e+00    3.095756e+00
  5.576483e+00    3.137134e+00
  5.687612e+00    3.115324e+00
  5.798741e+00    3.127733e+00
  5.909870e+00    2.951566e+00
  6.020999e+00    3.126760e+00
  6.132128e+00    3.100713e+00
  6.243257e+00    3.045869e+00
  6.354386e+00    2.986854e+00
  6.465515e+00    3.103301e+00
  6.576644e+00    3.030122e+00
  6.687773e+00    3.000591e+00
  6.798902e+00    3.018782e+00
  6.910031e+00    3.027174e+00
  7.021160e+00    3.044366e+00
  7.132289e+00    3.064440e+00
  7.243418e+00    3.035410e+00
  7.354547e+00    2.993615e+00
  7.465676e+00    3.003724e+00
  7.576805e+00    3.033913e+00
  7.687934e+00    2.963292e+00
  7.799063e+00    2.994243e+00
  7.910192e+00    2.987255e+00
  8.021321e+00    2.951309e+00
  8.132450e+00    2.981638e+00
  8.243579e+00    3.018961e+00
  8.354708e+00    3.009705e+00
  8.465837e+00    2.876457e+00
  8.576966e+00    2.881900e+00
  8.688095e+00    2.904668e+00
  8.799224e+00    2.822487e+00
  8.910353e+00    2.855689e+00
  9.021482e+00    2.839718e+00
  9.132611e+00    2.883029e+00
  9.243740e+00    2.854754e+00
  9.354869e+00    2.773467e+00
  9.465998e+00    2.783359e+00
  9.577127e+00    2.802571e+00
  9.688256e+00    2.757719e+00
  9.799385e+00    2.737200e+00
  9.910514e+00    2.720184e+00
  1.002164e+01    2.693370e+00
  1.013277e+01    2.706204e+00
  1.024390e+01    2.660160e+00
  1.035503e+01    2.672726e+00
  1.046616e+01    2.613862e+00
  1.057729e+01    2.594453e+00
  1.068842e+01    2.566644e+00
  1.079955e+01    2.553898e+00
  1.091068e+01    2.555532e+00
  1.102180e+01    2.490615e+00
  1.113293e+01    2.502081e+00
  1.124406e+01    2.469418e+00
  1.135519e+01    2.420148e+00
  1.146632e+01    2.382083e+00
  1.157745e+01    2.403274e+00
  1.168858e+01    2.387397e+00
  1.179971e+01    2.413469e+00
  1.191084e+01    2.378572e+00
  1.202197e+01    2.385481e+00
  1.213309e+01    2.358672e+00
  1.224422e+01    2.310771e+00
  1.235535e+01    2.347646e+00
  1.246648e+01    2.362409e+00
  1.257761e+01    2.492890e+00
  1.268874e+01    2.467591e+00
  1.279987e+01    2.664118e+00
  1.291100e+01    3.297662e+00
  1.302213e+01    5.714340e+00
  1.313326e+01    1.496874e+01
  1.324438e+01    1.678556e+01
  1.335551e+01    5.691497e+00
  1.346664e+01    3.217831e+00
  1.357777e+01    2.602589e+00
  1.368890e+01    2.321625e+00
  1.380003e+01    2.211508e+00
  1.391116e+01    2.139561e+00
  1.402229e+01    2.101556e+00
  1.413342e+01    2.048079e+00
  1.424455e+01    2.027272e+00
  1.435568e+01    1.994107e+00
  1.446680e+01    1.993320e+00
  1.457793e+01    1.932340e+00
  1.468906e+01    1.900006e+00
  1.480019e+01    1.942996e+00
  1.491132e+01    2.010816e+00
  1.502245e+01    2.181214e+00
  1.513358e+01    3.238158e+00
  1.524471e+01    6.042965e+00
  1.535584e+01    5.101306e+00
  1.546697e+01    2.520462e+00
  1.557809e+01    2.003946e+00
  1.568922e+01    1.783500e+00
  1.580035e+01    1.704911e+00
  1.591148e+01    1.676800e+00
  1.602261e+01    1.615191e+00
  1.613374e+01    1.592497e+00
  1.624487e+01    1.590511e+00
  1.635600e+01    1.585774e+00
  1.646713e+01    1.546532e+00
  1.657826e+01    1.540544e+00
  1.668938e+01    1.510722e+00
  1.680051e+01    1.495511e+00
  1.691164e+01    1.456442e+00
  1.702277e+01    1.450026e+00
  1.713390e+01    1.454785e+00
  1.724503e+01    1.394581e+00
  1.735616e+01    1.395359e+00
  1.746729e+01    1.401209e+00
  1.757842e+01    1.376560e+00
  1.768955e+01    1.338747e+00
  1.780067e+01    1.376308e+00
  1.791180e+01    1.343387e+00
  1.802293e+01    1.328703e+00
  1.813406e+01    1.308303e+00
  1.824519e+01    1.285643e+00
  1.835632e+01    1.278906e+00
  1.846745e+01    1.289079e+00
  1.857858e+01    1.241693e+00
  1.868971e+01    1.234288e+00
  1.880084e+01    1.253383e+00
  1.891196e+01    1.220800e+00
  1.902309e+01    1.249497e+00
  1.913422e+01    1.201761e+00
  1.924535e+01    1.204561e+00
  1.935648e+01    1.209617e+00
  1.946761e+01    1.191736e+00
  1.957874e+01    1.190089e+00
  1.968987e+01    1.166401e+00
  1.980100e+01    1.158392e+00
  1.991213e+01    1.168972e+00
  2.002325e+01    1.140808e+00
  2.013438e+01    1.142389e+00
  2.024551e+01    1.122129e+00
  2.035664e+01    1.093540e+00
  2.046777e+01    1.118846e+00
  2.057890e+01    1.106635e+00
  2.069003e+01    1.094790e+00
  2.080116e+01    1.094699e+00
  2.091229e+01    1.096698e+00
  2.102342e+01    1.089113e+00
  2.113455e+01    1.132532e+00
  2.124567e+01    1.108045e+00
  2.135680e+01    1.182929e+00
  2.146793e+01    1.249769e+00
  2.157906e+01    1.449296e+00
  2.169019e+01    2.055796e+00
  2.180132e+01    4.731196e+00
  2.191245e+01    1.043660e+01
  2.202358e+01    6.434783e+00
  2.213471e+01    2.394261e+00
  2.224584e+01    1.511191e+00
  2.235696e+01    1.235858e+00
  2.246809e+01    1.135423e+00
  2.257922e+01    1.044960e+00
  2.269035e+01    1.019519e+00
  2.280148e+01    9.648345e-01
  2.291261e+01    9.279806e-01
  2.302374e+01    9.133304e-01
  2.313487e+01    9.122232e-01
  2.324600e+01    8.929192e-01
  2.335713e+01    8.649513e-01
  2.346825e+01    8.665306e-01
  2.357938e+01    8.464216e-01
  2.369051e+01    8.381208e-01
  2.380164e+01    8.173035e-01
  2.391277e+01    8.043227e-01
  2.402390e+01    8.202789e-01
  2.413503e+01    8.186516e-01
  2.424616e+01    7.847168e-01
  2.435729e+01    8.003793e-01
  2.446842e+01    8.027754e-01
  2.457954e+01    7.839842e-01
  2.469067e+01    8.066465e-01
  2.480180e+01    8.140091e-01
  2.491293e+01    8.122874e-01
  2.502406e+01    8.088239e-01
  2.513519e+01    8.451439e-01
  2.524632e+01    8.493301e-01
  2.535745e+01    8.990648e-01
  2.546858e+01    9.503418e-01
  2.557971e+01    1.057397e+00
  2.569083e+01    1.303650e+00
  2.580196e+01    2.160063e+00
  2.591309e+01    5.359513e+00
  2.602422e+01    9.267828e+00
  2.613535e+01    3.795239e+00
  2.624648e+01    1.741705e+00
  2.635761e+01    1.205619e+00
  2.646874e+01    1.068813e+00
  2.657987e+01    9.765611e-01
  2.669100e+01    9.597066e-01
  2.680212e+01    9.162875e-01
  2.691325e+01    9.325071e-01
  2.702438e+01    1.049408e+00
  2.713551e+01    1.437883e+00
  2.724664e+01    2.523023e+00
  2.735777e+01    1.873894e+00
  2.746890e+01    1.107700e+00
  2.758003e+01    9.417149e-01
  2.769116e+01    8.831097e-01
  2.780229e+01    8.540873e-01
  2.791342e+01    8.203504e-01
  2.802454e+01    8.085331e-01
  2.813567e+01    7.930831e-01
  2.824680e+01    7.976105e-01
  2.835793e+01    7.685733e-01
  2.846906e+01    7.720125e-01
  2.858019e+01    7.764444e-01
  2.869132e+01    7.662567e-01
  2.880245e+01    7.567993e-01
  2.891358e+01    7.762494e-01
  2.902471e+01    7.552404e-01
  2.913583e+01    7.401745e-01
  2.924696e+01    7.473193e-01
  2.935809e+01    7.544079e-01
  2.946922e+01    7.462100e-01
  2.958035e+01    7.285171e-01
  2.969148e+01    7.307176e-01
  2.980261e+01    7.441939e-01
  2.991374e+01    7.310288e-01
  3.002487e+01    7.432054e-01
  3.013600e+01    7.206524e-01
  3.024712e+01    7.254495e-01
  3.035825e+01    7.202882e-01
  3.046938e+01    7.353871e-01
  3.058051e+01    7.233338e-01
  3.069164e+01    7.337075e-01
  3.080277e+01    7.247658e-01
  3.091390e+01    7.281787e-01
  3.102503e+01    7.393354e-01
  3.113616e+01    7.569929e-01
  3.124729e+01    7.449657e-01
  3.135841e+01    7.473275e-01
  3.146954e+01    7.546968e-01
  3.158067e+01    8.078240e-01
  3.169180e+01    9.036953e-01
  3.180293e+01    1.173390e+00
  3.191406e+01    2.181717e+00
  3.202519e+01    2.236509e+00
  3.213632e+01    1.134740e+00
  3.224745e+01    8.763400e-01
  3.235858e+01    8.100497e-01
  3.246970e+01    7.554209e-01
  3.254908e+01    7.566329e-01