File: XRD/2024-07-27_002_Ru-CGO-ex_Activtation_ramp_000002_data_000019.dat
# == pyFAI calibration ==
# Distance Sample to Detector: 0.4 m
# PONI: 9.750e-02, 1.135e-01 m
# Rotations: -0.000175 0.000000 -0.000000 rad
#
# == Fit2d calibration ==
# Distance Sample-beamCenter: 400.000 mm
# Center: x=1514.000, y=1300.000 pix
# Tilt: 0.010 deg  TiltPlanRot: 0.010 deg
#
# Detector Detector	 Spline= None	 PixelSize= 7.500e-05, 7.500e-05 m
#    Detector has a mask: False
#    Detector has a dark current: False
#    detector has a flat field: False
#
# Wavelength: 6.888e-11 m
# Mask applied: user provided
# Dark current applied: False
# Flat field applied: False
# Polarization factor: 0.99
# Normalization factor: 1.0
# --> /home/myspot/data/2024_07_Rosario/Ru-CGO-ex/2024-07-27_002_Ru-CGO-ex_Activtation_ramp_000002_data_000019.dat
#       q_nm^-1             I
  2.003187e-02    7.712225e-02
  1.311609e-01    4.569653e-02
  2.422899e-01    2.164237e-02
  3.534189e-01    2.826644e-02
  4.645479e-01    6.559074e-02
  5.756770e-01    4.504694e-02
  6.868060e-01    4.331751e-02
  7.979350e-01    1.132013e-01
  9.090640e-01    5.558136e-01
  1.020193e+00    1.088688e+00
  1.131322e+00    1.591171e+00
  1.242451e+00    2.230886e+00
  1.353580e+00    2.673666e+00
  1.464709e+00    2.818300e+00
  1.575838e+00    3.205093e+00
  1.686967e+00    2.931440e+00
  1.798096e+00    2.811023e+00
  1.909225e+00    2.795687e+00
  2.020354e+00    2.757701e+00
  2.131483e+00    2.854267e+00
  2.242612e+00    2.901916e+00
  2.353741e+00    2.788818e+00
  2.464870e+00    2.822762e+00
  2.575999e+00    2.858778e+00
  2.687128e+00    2.937791e+00
  2.798257e+00    2.811428e+00
  2.909386e+00    2.967116e+00
  3.020515e+00    2.874474e+00
  3.131644e+00    2.966795e+00
  3.242773e+00    2.857151e+00
  3.353902e+00    3.002267e+00
  3.465031e+00    3.042600e+00
  3.576160e+00    2.945850e+00
  3.687289e+00    2.929686e+00
  3.798418e+00    3.011637e+00
  3.909547e+00    2.846385e+00
  4.020676e+00    3.014361e+00
  4.131806e+00    3.013821e+00
  4.242935e+00    3.099146e+00
  4.354064e+00    3.118820e+00
  4.465193e+00    3.020012e+00
  4.576322e+00    3.095710e+00
  4.687451e+00    3.158439e+00
  4.798580e+00    3.184890e+00
  4.909709e+00    3.131164e+00
  5.020838e+00    3.074018e+00
  5.131967e+00    3.109809e+00
  5.243096e+00    3.068778e+00
  5.354225e+00    3.117350e+00
  5.465354e+00    3.061479e+00
  5.576483e+00    3.116297e+00
  5.687612e+00    3.086847e+00
  5.798741e+00    2.972594e+00
  5.909870e+00    3.130185e+00
  6.020999e+00    2.936092e+00
  6.132128e+00    3.127464e+00
  6.243257e+00    3.045086e+00
  6.354386e+00    3.171934e+00
  6.465515e+00    2.963072e+00
  6.576644e+00    3.038412e+00
  6.687773e+00    3.058213e+00
  6.798902e+00    3.002626e+00
  6.910031e+00    3.095196e+00
  7.021160e+00    3.054629e+00
  7.132289e+00    3.038874e+00
  7.243418e+00    3.047719e+00
  7.354547e+00    3.016306e+00
  7.465676e+00    3.039368e+00
  7.576805e+00    2.981112e+00
  7.687934e+00    2.953964e+00
  7.799063e+00    3.020954e+00
  7.910192e+00    2.983783e+00
  8.021321e+00    2.936805e+00
  8.132450e+00    2.888476e+00
  8.243579e+00    3.022528e+00
  8.354708e+00    2.902118e+00
  8.465837e+00    2.903394e+00
  8.576966e+00    2.908897e+00
  8.688095e+00    2.864926e+00
  8.799224e+00    2.905185e+00
  8.910353e+00    2.845683e+00
  9.021482e+00    2.840868e+00
  9.132611e+00    2.894820e+00
  9.243740e+00    2.804806e+00
  9.354869e+00    2.797025e+00
  9.465998e+00    2.776976e+00
  9.577127e+00    2.800475e+00
  9.688256e+00    2.736977e+00
  9.799385e+00    2.740983e+00
  9.910514e+00    2.745710e+00
  1.002164e+01    2.686719e+00
  1.013277e+01    2.651748e+00
  1.024390e+01    2.712281e+00
  1.035503e+01    2.643377e+00
  1.046616e+01    2.698436e+00
  1.057729e+01    2.598461e+00
  1.068842e+01    2.589105e+00
  1.079955e+01    2.532060e+00
  1.091068e+01    2.569702e+00
  1.102180e+01    2.523737e+00
  1.113293e+01    2.464592e+00
  1.124406e+01    2.534104e+00
  1.135519e+01    2.435897e+00
  1.146632e+01    2.423563e+00
  1.157745e+01    2.445113e+00
  1.168858e+01    2.381657e+00
  1.179971e+01    2.374440e+00
  1.191084e+01    2.386751e+00
  1.202197e+01    2.324721e+00
  1.213309e+01    2.357236e+00
  1.224422e+01    2.342810e+00
  1.235535e+01    2.359207e+00
  1.246648e+01    2.369110e+00
  1.257761e+01    2.425143e+00
  1.268874e+01    2.479705e+00
  1.279987e+01    2.652180e+00
  1.291100e+01    3.256857e+00
  1.302213e+01    5.895286e+00
  1.313326e+01    1.501350e+01
  1.324438e+01    1.641147e+01
  1.335551e+01    5.509358e+00
  1.346664e+01    3.203830e+00
  1.357777e+01    2.593836e+00
  1.368890e+01    2.343946e+00
  1.380003e+01    2.208743e+00
  1.391116e+01    2.135475e+00
  1.402229e+01    2.044659e+00
  1.413342e+01    2.060090e+00
  1.424455e+01    1.986394e+00
  1.435568e+01    1.963928e+00
  1.446680e+01    1.956401e+00
  1.457793e+01    1.951653e+00
  1.468906e+01    1.895123e+00
  1.480019e+01    1.914557e+00
  1.491132e+01    1.973539e+00
  1.502245e+01    2.196023e+00
  1.513358e+01    3.251143e+00
  1.524471e+01    6.011543e+00
  1.535584e+01    5.003013e+00
  1.546697e+01    2.549634e+00
  1.557809e+01    1.918645e+00
  1.568922e+01    1.815428e+00
  1.580035e+01    1.758437e+00
  1.591148e+01    1.658578e+00
  1.602261e+01    1.584215e+00
  1.613374e+01    1.583228e+00
  1.624487e+01    1.592726e+00
  1.635600e+01    1.534353e+00
  1.646713e+01    1.550868e+00
  1.657826e+01    1.549049e+00
  1.668938e+01    1.534792e+00
  1.680051e+01    1.487723e+00
  1.691164e+01    1.462809e+00
  1.702277e+01    1.450770e+00
  1.713390e+01    1.413820e+00
  1.724503e+01    1.408346e+00
  1.735616e+01    1.419435e+00
  1.746729e+01    1.374514e+00
  1.757842e+01    1.383932e+00
  1.768955e+01    1.340225e+00
  1.780067e+01    1.339746e+00
  1.791180e+01    1.330186e+00
  1.802293e+01    1.305213e+00
  1.813406e+01    1.289696e+00
  1.824519e+01    1.278593e+00
  1.835632e+01    1.303481e+00
  1.846745e+01    1.233718e+00
  1.857858e+01    1.237166e+00
  1.868971e+01    1.259382e+00
  1.880084e+01    1.218873e+00
  1.891196e+01    1.207188e+00
  1.902309e+01    1.209199e+00
  1.913422e+01    1.210491e+00
  1.924535e+01    1.211805e+00
  1.935648e+01    1.194863e+00
  1.946761e+01    1.197103e+00
  1.957874e+01    1.171626e+00
  1.968987e+01    1.165594e+00
  1.980100e+01    1.154752e+00
  1.991213e+01    1.152119e+00
  2.002325e+01    1.116987e+00
  2.013438e+01    1.136463e+00
  2.024551e+01    1.135437e+00
  2.035664e+01    1.103003e+00
  2.046777e+01    1.078708e+00
  2.057890e+01    1.100507e+00
  2.069003e+01    1.076306e+00
  2.080116e+01    1.096919e+00
  2.091229e+01    1.106834e+00
  2.102342e+01    1.076438e+00
  2.113455e+01    1.101099e+00
  2.124567e+01    1.114694e+00
  2.135680e+01    1.176420e+00
  2.146793e+01    1.241391e+00
  2.157906e+01    1.438940e+00
  2.169019e+01    2.113356e+00
  2.180132e+01    4.769326e+00
  2.191245e+01    1.047928e+01
  2.202358e+01    6.178978e+00
  2.213471e+01    2.390989e+00
  2.224584e+01    1.494414e+00
  2.235696e+01    1.216355e+00
  2.246809e+01    1.099550e+00
  2.257922e+01    1.048913e+00
  2.269035e+01    9.916947e-01
  2.280148e+01    9.800804e-01
  2.291261e+01    9.544610e-01
  2.302374e+01    9.247282e-01
  2.313487e+01    8.995906e-01
  2.324600e+01    8.818661e-01
  2.335713e+01    8.842645e-01
  2.346825e+01    8.834555e-01
  2.357938e+01    8.508496e-01
  2.369051e+01    8.476025e-01
  2.380164e+01    8.380271e-01
  2.391277e+01    8.250319e-01
  2.402390e+01    8.106237e-01
  2.413503e+01    8.049652e-01
  2.424616e+01    7.688195e-01
  2.435729e+01    8.156908e-01
  2.446842e+01    8.196961e-01
  2.457954e+01    8.215531e-01
  2.469067e+01    8.029169e-01
  2.480180e+01    8.051096e-01
  2.491293e+01    8.104502e-01
  2.502406e+01    8.192835e-01
  2.513519e+01    8.252853e-01
  2.524632e+01    8.510426e-01
  2.535745e+01    9.046552e-01
  2.546858e+01    9.600593e-01
  2.557971e+01    1.055734e+00
  2.569083e+01    1.318310e+00
  2.580196e+01    2.166777e+00
  2.591309e+01    5.486234e+00
  2.602422e+01    9.048020e+00
  2.613535e+01    3.629481e+00
  2.624648e+01    1.726211e+00
  2.635761e+01    1.184087e+00
  2.646874e+01    1.007894e+00
  2.657987e+01    9.654929e-01
  2.669100e+01    9.089636e-01
  2.680212e+01    9.099513e-01
  2.691325e+01    9.449551e-01
  2.702438e+01    1.060071e+00
  2.713551e+01    1.439230e+00
  2.724664e+01    2.523318e+00
  2.735777e+01    1.812109e+00
  2.746890e+01    1.123081e+00
  2.758003e+01    9.334984e-01
  2.769116e+01    8.642667e-01
  2.780229e+01    8.273523e-01
  2.791342e+01    8.222526e-01
  2.802454e+01    8.214561e-01
  2.813567e+01    8.126291e-01
  2.824680e+01    7.848449e-01
  2.835793e+01    8.058836e-01
  2.846906e+01    7.925353e-01
  2.858019e+01    7.816892e-01
  2.869132e+01    7.771071e-01
  2.880245e+01    7.646666e-01
  2.891358e+01    7.759365e-01
  2.902471e+01    7.704068e-01
  2.913583e+01    7.518992e-01
  2.924696e+01    7.511849e-01
  2.935809e+01    7.429231e-01
  2.946922e+01    7.290885e-01
  2.958035e+01    7.315809e-01
  2.969148e+01    7.273877e-01
  2.980261e+01    7.401174e-01
  2.991374e+01    7.187577e-01
  3.002487e+01    7.394261e-01
  3.013600e+01    7.332991e-01
  3.024712e+01    7.427698e-01
  3.035825e+01    7.175791e-01
  3.046938e+01    7.270551e-01
  3.058051e+01    7.258229e-01
  3.069164e+01    7.286904e-01
  3.080277e+01    7.105401e-01
  3.091390e+01    7.522131e-01
  3.102503e+01    7.330632e-01
  3.113616e+01    7.309212e-01
  3.124729e+01    7.411068e-01
  3.135841e+01    7.650552e-01
  3.146954e+01    7.493626e-01
  3.158067e+01    7.717705e-01
  3.169180e+01    8.891919e-01
  3.180293e+01    1.207423e+00
  3.191406e+01    2.199781e+00
  3.202519e+01    2.188598e+00
  3.213632e+01    1.099411e+00
  3.224745e+01    8.697041e-01
  3.235858e+01    7.985255e-01
  3.246970e+01    7.345421e-01
  3.254908e+01    7.450415e-01