File: XRD/2024-07-27_002_Ru-CGO-ex_Activtation_ramp_000002_data_000076.dat
# == pyFAI calibration ==
# Distance Sample to Detector: 0.4 m
# PONI: 9.750e-02, 1.135e-01 m
# Rotations: -0.000175 0.000000 -0.000000 rad
#
# == Fit2d calibration ==
# Distance Sample-beamCenter: 400.000 mm
# Center: x=1514.000, y=1300.000 pix
# Tilt: 0.010 deg  TiltPlanRot: 0.010 deg
#
# Detector Detector	 Spline= None	 PixelSize= 7.500e-05, 7.500e-05 m
#    Detector has a mask: False
#    Detector has a dark current: False
#    detector has a flat field: False
#
# Wavelength: 6.888e-11 m
# Mask applied: user provided
# Dark current applied: False
# Flat field applied: False
# Polarization factor: 0.99
# Normalization factor: 1.0
# --> /home/myspot/data/2024_07_Rosario/Ru-CGO-ex/2024-07-27_002_Ru-CGO-ex_Activtation_ramp_000002_data_000076.dat
#       q_nm^-1             I
  2.003187e-02    7.712624e-02
  1.311609e-01    7.621704e-02
  2.422899e-01    1.105189e-02
  3.534189e-01    1.951802e-02
  4.645479e-01    3.805071e-02
  5.756770e-01    6.305470e-02
  6.868060e-01    4.732665e-02
  7.979350e-01    1.463759e-01
  9.090640e-01    6.065422e-01
  1.020193e+00    1.086642e+00
  1.131322e+00    1.472543e+00
  1.242451e+00    2.264899e+00
  1.353580e+00    2.639770e+00
  1.464709e+00    2.794153e+00
  1.575838e+00    2.909131e+00
  1.686967e+00    2.816894e+00
  1.798096e+00    2.717480e+00
  1.909225e+00    2.707997e+00
  2.020354e+00    2.771351e+00
  2.131483e+00    2.797478e+00
  2.242612e+00    2.688492e+00
  2.353741e+00    2.728221e+00
  2.464870e+00    2.785775e+00
  2.575999e+00    2.669474e+00
  2.687128e+00    2.865967e+00
  2.798257e+00    2.785558e+00
  2.909386e+00    2.840859e+00
  3.020515e+00    2.922739e+00
  3.131644e+00    2.973902e+00
  3.242773e+00    2.927590e+00
  3.353902e+00    3.085337e+00
  3.465031e+00    2.928180e+00
  3.576160e+00    2.913234e+00
  3.687289e+00    2.879165e+00
  3.798418e+00    2.991192e+00
  3.909547e+00    3.029414e+00
  4.020676e+00    3.112536e+00
  4.131806e+00    3.042096e+00
  4.242935e+00    3.006250e+00
  4.354064e+00    3.025964e+00
  4.465193e+00    3.083975e+00
  4.576322e+00    2.957414e+00
  4.687451e+00    3.054369e+00
  4.798580e+00    3.067966e+00
  4.909709e+00    3.092102e+00
  5.020838e+00    3.160747e+00
  5.131967e+00    3.029224e+00
  5.243096e+00    3.138233e+00
  5.354225e+00    3.123448e+00
  5.465354e+00    3.125601e+00
  5.576483e+00    3.011410e+00
  5.687612e+00    3.005968e+00
  5.798741e+00    3.115326e+00
  5.909870e+00    2.992472e+00
  6.020999e+00    3.062855e+00
  6.132128e+00    3.083477e+00
  6.243257e+00    3.053914e+00
  6.354386e+00    3.041265e+00
  6.465515e+00    3.070956e+00
  6.576644e+00    2.996375e+00
  6.687773e+00    3.054894e+00
  6.798902e+00    2.996808e+00
  6.910031e+00    3.093030e+00
  7.021160e+00    3.055516e+00
  7.132289e+00    3.023401e+00
  7.243418e+00    2.995519e+00
  7.354547e+00    3.044125e+00
  7.465676e+00    2.973839e+00
  7.576805e+00    2.879481e+00
  7.687934e+00    2.948138e+00
  7.799063e+00    2.947640e+00
  7.910192e+00    2.855276e+00
  8.021321e+00    2.870725e+00
  8.132450e+00    2.938844e+00
  8.243579e+00    2.981285e+00
  8.354708e+00    2.805905e+00
  8.465837e+00    2.854139e+00
  8.576966e+00    2.834093e+00
  8.688095e+00    2.880728e+00
  8.799224e+00    2.818752e+00
  8.910353e+00    2.837980e+00
  9.021482e+00    2.876816e+00
  9.132611e+00    2.872227e+00
  9.243740e+00    2.769469e+00
  9.354869e+00    2.778996e+00
  9.465998e+00    2.750294e+00
  9.577127e+00    2.756680e+00
  9.688256e+00    2.730947e+00
  9.799385e+00    2.708260e+00
  9.910514e+00    2.668733e+00
  1.002164e+01    2.650690e+00
  1.013277e+01    2.664277e+00
  1.024390e+01    2.618961e+00
  1.035503e+01    2.641720e+00
  1.046616e+01    2.582677e+00
  1.057729e+01    2.553709e+00
  1.068842e+01    2.561623e+00
  1.079955e+01    2.532433e+00
  1.091068e+01    2.466756e+00
  1.102180e+01    2.499212e+00
  1.113293e+01    2.431744e+00
  1.124406e+01    2.483779e+00
  1.135519e+01    2.431299e+00
  1.146632e+01    2.376999e+00
  1.157745e+01    2.342761e+00
  1.168858e+01    2.349106e+00
  1.179971e+01    2.347669e+00
  1.191084e+01    2.302056e+00
  1.202197e+01    2.294618e+00
  1.213309e+01    2.330309e+00
  1.224422e+01    2.310776e+00
  1.235535e+01    2.308067e+00
  1.246648e+01    2.357315e+00
  1.257761e+01    2.352911e+00
  1.268874e+01    2.460171e+00
  1.279987e+01    2.622392e+00
  1.291100e+01    3.256984e+00
  1.302213e+01    5.985097e+00
  1.313326e+01    1.488373e+01
  1.324438e+01    1.393746e+01
  1.335551e+01    4.834144e+00
  1.346664e+01    2.993498e+00
  1.357777e+01    2.499721e+00
  1.368890e+01    2.251773e+00
  1.380003e+01    2.167492e+00
  1.391116e+01    2.086221e+00
  1.402229e+01    2.004095e+00
  1.413342e+01    1.999516e+00
  1.424455e+01    1.953472e+00
  1.435568e+01    1.960253e+00
  1.446680e+01    1.915957e+00
  1.457793e+01    1.917545e+00
  1.468906e+01    1.911890e+00
  1.480019e+01    1.902754e+00
  1.491132e+01    1.903224e+00
  1.502245e+01    2.234193e+00
  1.513358e+01    3.318553e+00
  1.524471e+01    5.889992e+00
  1.535584e+01    4.337430e+00
  1.546697e+01    2.366632e+00
  1.557809e+01    1.905196e+00
  1.568922e+01    1.799250e+00
  1.580035e+01    1.694695e+00
  1.591148e+01    1.651786e+00
  1.602261e+01    1.564635e+00
  1.613374e+01    1.612416e+00
  1.624487e+01    1.562599e+00
  1.635600e+01    1.560037e+00
  1.646713e+01    1.515628e+00
  1.657826e+01    1.519735e+00
  1.668938e+01    1.473470e+00
  1.680051e+01    1.462547e+00
  1.691164e+01    1.425089e+00
  1.702277e+01    1.439984e+00
  1.713390e+01    1.428341e+00
  1.724503e+01    1.395603e+00
  1.735616e+01    1.371322e+00
  1.746729e+01    1.366247e+00
  1.757842e+01    1.349177e+00
  1.768955e+01    1.368148e+00
  1.780067e+01    1.324583e+00
  1.791180e+01    1.326645e+00
  1.802293e+01    1.278364e+00
  1.813406e+01    1.293947e+00
  1.824519e+01    1.305120e+00
  1.835632e+01    1.247044e+00
  1.846745e+01    1.265808e+00
  1.857858e+01    1.240128e+00
  1.868971e+01    1.229227e+00
  1.880084e+01    1.215819e+00
  1.891196e+01    1.235916e+00
  1.902309e+01    1.209288e+00
  1.913422e+01    1.181385e+00
  1.924535e+01    1.188421e+00
  1.935648e+01    1.186294e+00
  1.946761e+01    1.173181e+00
  1.957874e+01    1.147561e+00
  1.968987e+01    1.144528e+00
  1.980100e+01    1.117488e+00
  1.991213e+01    1.115287e+00
  2.002325e+01    1.111070e+00
  2.013438e+01    1.107420e+00
  2.024551e+01    1.092095e+00
  2.035664e+01    1.113408e+00
  2.046777e+01    1.081666e+00
  2.057890e+01    1.089322e+00
  2.069003e+01    1.085351e+00
  2.080116e+01    1.104408e+00
  2.091229e+01    1.055100e+00
  2.102342e+01    1.080456e+00
  2.113455e+01    1.053168e+00
  2.124567e+01    1.121055e+00
  2.135680e+01    1.129248e+00
  2.146793e+01    1.214624e+00
  2.157906e+01    1.454444e+00
  2.169019e+01    2.201154e+00
  2.180132e+01    5.193136e+00
  2.191245e+01    1.024850e+01
  2.202358e+01    4.841403e+00
  2.213471e+01    2.033283e+00
  2.224584e+01    1.397471e+00
  2.235696e+01    1.150158e+00
  2.246809e+01    1.062381e+00
  2.257922e+01    1.012210e+00
  2.269035e+01    9.790579e-01
  2.280148e+01    9.641576e-01
  2.291261e+01    9.177285e-01
  2.302374e+01    8.898441e-01
  2.313487e+01    9.054077e-01
  2.324600e+01    8.669314e-01
  2.335713e+01    8.721026e-01
  2.346825e+01    8.404034e-01
  2.357938e+01    8.407968e-01
  2.369051e+01    8.127427e-01
  2.380164e+01    8.085747e-01
  2.391277e+01    7.775387e-01
  2.402390e+01    7.924078e-01
  2.413503e+01    7.871322e-01
  2.424616e+01    7.995580e-01
  2.435729e+01    7.947698e-01
  2.446842e+01    7.949661e-01
  2.457954e+01    8.027078e-01
  2.469067e+01    7.883474e-01
  2.480180e+01    8.007096e-01
  2.491293e+01    7.969653e-01
  2.502406e+01    8.014498e-01
  2.513519e+01    8.163435e-01
  2.524632e+01    8.225983e-01
  2.535745e+01    8.972294e-01
  2.546858e+01    9.535308e-01
  2.557971e+01    1.077822e+00
  2.569083e+01    1.343407e+00
  2.580196e+01    2.415680e+00
  2.591309e+01    5.958369e+00
  2.602422e+01    7.616685e+00
  2.613535e+01    2.852360e+00
  2.624648e+01    1.496808e+00
  2.635761e+01    1.127624e+00
  2.646874e+01    9.819380e-01
  2.657987e+01    9.205010e-01
  2.669100e+01    8.863372e-01
  2.680212e+01    9.048228e-01
  2.691325e+01    9.358582e-01
  2.702438e+01    1.056631e+00
  2.713551e+01    1.523855e+00
  2.724664e+01    2.461305e+00
  2.735777e+01    1.507576e+00
  2.746890e+01    1.014321e+00
  2.758003e+01    8.948212e-01
  2.769116e+01    8.541592e-01
  2.780229e+01    8.325751e-01
  2.791342e+01    7.979473e-01
  2.802454e+01    7.889050e-01
  2.813567e+01    7.836691e-01
  2.824680e+01    7.857025e-01
  2.835793e+01    7.611828e-01
  2.846906e+01    7.726482e-01
  2.858019e+01    7.622495e-01
  2.869132e+01    7.679844e-01
  2.880245e+01    7.620471e-01
  2.891358e+01    7.526045e-01
  2.902471e+01    7.385967e-01
  2.913583e+01    7.440027e-01
  2.924696e+01    7.393776e-01
  2.935809e+01    7.421432e-01
  2.946922e+01    7.039997e-01
  2.958035e+01    7.377591e-01
  2.969148e+01    7.243293e-01
  2.980261e+01    7.328113e-01
  2.991374e+01    7.326940e-01
  3.002487e+01    7.324749e-01
  3.013600e+01    7.309520e-01
  3.024712e+01    7.030709e-01
  3.035825e+01    7.150175e-01
  3.046938e+01    7.065300e-01
  3.058051e+01    7.044939e-01
  3.069164e+01    7.098287e-01
  3.080277e+01    6.911324e-01
  3.091390e+01    7.114419e-01
  3.102503e+01    7.066693e-01
  3.113616e+01    7.080489e-01
  3.124729e+01    7.397825e-01
  3.135841e+01    7.390020e-01
  3.146954e+01    7.562511e-01
  3.158067e+01    8.014927e-01
  3.169180e+01    8.930056e-01
  3.180293e+01    1.264788e+00
  3.191406e+01    2.288306e+00
  3.202519e+01    1.711661e+00
  3.213632e+01    9.897223e-01
  3.224745e+01    8.275937e-01
  3.235858e+01    7.617321e-01
  3.246970e+01    7.238939e-01
  3.254908e+01    7.134153e-01