File: XRD/2024-07-27_002_Ru-CGO-ex_Activtation_ramp_000002_data_000042.dat
# == pyFAI calibration ==
# Distance Sample to Detector: 0.4 m
# PONI: 9.750e-02, 1.135e-01 m
# Rotations: -0.000175 0.000000 -0.000000 rad
#
# == Fit2d calibration ==
# Distance Sample-beamCenter: 400.000 mm
# Center: x=1514.000, y=1300.000 pix
# Tilt: 0.010 deg  TiltPlanRot: 0.010 deg
#
# Detector Detector	 Spline= None	 PixelSize= 7.500e-05, 7.500e-05 m
#    Detector has a mask: False
#    Detector has a dark current: False
#    detector has a flat field: False
#
# Wavelength: 6.888e-11 m
# Mask applied: user provided
# Dark current applied: False
# Flat field applied: False
# Polarization factor: 0.99
# Normalization factor: 1.0
# --> /home/myspot/data/2024_07_Rosario/Ru-CGO-ex/2024-07-27_002_Ru-CGO-ex_Activtation_ramp_000002_data_000042.dat
#       q_nm^-1             I
  2.003187e-02    0.000000e+00
  1.311609e-01    6.728543e-02
  2.422899e-01    5.650008e-02
  3.534189e-01    4.676791e-03
  4.645479e-01    2.258256e-02
  5.756770e-01    4.631240e-02
  6.868060e-01    7.067320e-03
  7.979350e-01    1.872258e-01
  9.090640e-01    5.859202e-01
  1.020193e+00    1.034002e+00
  1.131322e+00    1.349529e+00
  1.242451e+00    2.233938e+00
  1.353580e+00    2.625830e+00
  1.464709e+00    2.855995e+00
  1.575838e+00    3.086290e+00
  1.686967e+00    2.949654e+00
  1.798096e+00    2.761384e+00
  1.909225e+00    2.845084e+00
  2.020354e+00    2.801170e+00
  2.131483e+00    2.835958e+00
  2.242612e+00    2.714528e+00
  2.353741e+00    2.813441e+00
  2.464870e+00    2.719866e+00
  2.575999e+00    2.793359e+00
  2.687128e+00    2.883855e+00
  2.798257e+00    2.820387e+00
  2.909386e+00    2.874867e+00
  3.020515e+00    2.906005e+00
  3.131644e+00    2.902023e+00
  3.242773e+00    2.953770e+00
  3.353902e+00    2.981158e+00
  3.465031e+00    2.931967e+00
  3.576160e+00    2.992161e+00
  3.687289e+00    2.947874e+00
  3.798418e+00    2.988491e+00
  3.909547e+00    3.035118e+00
  4.020676e+00    3.044359e+00
  4.131806e+00    3.076426e+00
  4.242935e+00    3.121795e+00
  4.354064e+00    3.102430e+00
  4.465193e+00    3.083339e+00
  4.576322e+00    3.101906e+00
  4.687451e+00    3.114929e+00
  4.798580e+00    3.162584e+00
  4.909709e+00    3.047473e+00
  5.020838e+00    3.095092e+00
  5.131967e+00    3.087604e+00
  5.243096e+00    3.045276e+00
  5.354225e+00    3.144491e+00
  5.465354e+00    3.095307e+00
  5.576483e+00    3.027849e+00
  5.687612e+00    3.018496e+00
  5.798741e+00    3.053339e+00
  5.909870e+00    3.108435e+00
  6.020999e+00    2.976917e+00
  6.132128e+00    3.113646e+00
  6.243257e+00    3.008975e+00
  6.354386e+00    3.027071e+00
  6.465515e+00    3.021429e+00
  6.576644e+00    3.059666e+00
  6.687773e+00    2.971114e+00
  6.798902e+00    3.054598e+00
  6.910031e+00    3.057882e+00
  7.021160e+00    3.071761e+00
  7.132289e+00    2.992957e+00
  7.243418e+00    2.926677e+00
  7.354547e+00    2.971675e+00
  7.465676e+00    2.979350e+00
  7.576805e+00    2.890972e+00
  7.687934e+00    2.888252e+00
  7.799063e+00    2.988308e+00
  7.910192e+00    2.906624e+00
  8.021321e+00    2.903283e+00
  8.132450e+00    2.958983e+00
  8.243579e+00    2.845572e+00
  8.354708e+00    2.940759e+00
  8.465837e+00    2.874987e+00
  8.576966e+00    2.924268e+00
  8.688095e+00    2.865074e+00
  8.799224e+00    2.933689e+00
  8.910353e+00    2.898987e+00
  9.021482e+00    2.877527e+00
  9.132611e+00    2.799516e+00
  9.243740e+00    2.782755e+00
  9.354869e+00    2.760674e+00
  9.465998e+00    2.731567e+00
  9.577127e+00    2.771221e+00
  9.688256e+00    2.737921e+00
  9.799385e+00    2.709478e+00
  9.910514e+00    2.720258e+00
  1.002164e+01    2.709746e+00
  1.013277e+01    2.651992e+00
  1.024390e+01    2.664869e+00
  1.035503e+01    2.616004e+00
  1.046616e+01    2.575427e+00
  1.057729e+01    2.588536e+00
  1.068842e+01    2.572499e+00
  1.079955e+01    2.598924e+00
  1.091068e+01    2.536623e+00
  1.102180e+01    2.498591e+00
  1.113293e+01    2.447061e+00
  1.124406e+01    2.510530e+00
  1.135519e+01    2.417630e+00
  1.146632e+01    2.374296e+00
  1.157745e+01    2.398579e+00
  1.168858e+01    2.362066e+00
  1.179971e+01    2.376297e+00
  1.191084e+01    2.385139e+00
  1.202197e+01    2.322188e+00
  1.213309e+01    2.370240e+00
  1.224422e+01    2.344554e+00
  1.235535e+01    2.350971e+00
  1.246648e+01    2.332210e+00
  1.257761e+01    2.399359e+00
  1.268874e+01    2.439639e+00
  1.279987e+01    2.677959e+00
  1.291100e+01    3.302445e+00
  1.302213e+01    5.933041e+00
  1.313326e+01    1.508559e+01
  1.324438e+01    1.550975e+01
  1.335551e+01    5.185513e+00
  1.346664e+01    3.180281e+00
  1.357777e+01    2.578770e+00
  1.368890e+01    2.321990e+00
  1.380003e+01    2.171286e+00
  1.391116e+01    2.121155e+00
  1.402229e+01    2.072782e+00
  1.413342e+01    2.014659e+00
  1.424455e+01    2.019705e+00
  1.435568e+01    1.987273e+00
  1.446680e+01    1.936764e+00
  1.457793e+01    1.917421e+00
  1.468906e+01    1.925423e+00
  1.480019e+01    1.952080e+00
  1.491132e+01    1.974212e+00
  1.502245e+01    2.190278e+00
  1.513358e+01    3.295452e+00
  1.524471e+01    5.988146e+00
  1.535584e+01    4.738666e+00
  1.546697e+01    2.408094e+00
  1.557809e+01    1.936926e+00
  1.568922e+01    1.805861e+00
  1.580035e+01    1.704367e+00
  1.591148e+01    1.627891e+00
  1.602261e+01    1.601151e+00
  1.613374e+01    1.600071e+00
  1.624487e+01    1.570273e+00
  1.635600e+01    1.555524e+00
  1.646713e+01    1.535363e+00
  1.657826e+01    1.514090e+00
  1.668938e+01    1.495729e+00
  1.680051e+01    1.494004e+00
  1.691164e+01    1.474571e+00
  1.702277e+01    1.464941e+00
  1.713390e+01    1.436187e+00
  1.724503e+01    1.415556e+00
  1.735616e+01    1.339556e+00
  1.746729e+01    1.386948e+00
  1.757842e+01    1.399703e+00
  1.768955e+01    1.335267e+00
  1.780067e+01    1.335115e+00
  1.791180e+01    1.332884e+00
  1.802293e+01    1.305502e+00
  1.813406e+01    1.296046e+00
  1.824519e+01    1.304525e+00
  1.835632e+01    1.289678e+00
  1.846745e+01    1.261941e+00
  1.857858e+01    1.262697e+00
  1.868971e+01    1.221397e+00
  1.880084e+01    1.241056e+00
  1.891196e+01    1.215362e+00
  1.902309e+01    1.221175e+00
  1.913422e+01    1.195893e+00
  1.924535e+01    1.203416e+00
  1.935648e+01    1.180316e+00
  1.946761e+01    1.173758e+00
  1.957874e+01    1.148953e+00
  1.968987e+01    1.158230e+00
  1.980100e+01    1.121649e+00
  1.991213e+01    1.133255e+00
  2.002325e+01    1.147076e+00
  2.013438e+01    1.113341e+00
  2.024551e+01    1.117419e+00
  2.035664e+01    1.121121e+00
  2.046777e+01    1.099363e+00
  2.057890e+01    1.108616e+00
  2.069003e+01    1.107432e+00
  2.080116e+01    1.083583e+00
  2.091229e+01    1.097117e+00
  2.102342e+01    1.100727e+00
  2.113455e+01    1.091869e+00
  2.124567e+01    1.122948e+00
  2.135680e+01    1.146761e+00
  2.146793e+01    1.244503e+00
  2.157906e+01    1.443502e+00
  2.169019e+01    2.164219e+00
  2.180132e+01    4.995306e+00
  2.191245e+01    1.047747e+01
  2.202358e+01    5.631514e+00
  2.213471e+01    2.222448e+00
  2.224584e+01    1.449924e+00
  2.235696e+01    1.212505e+00
  2.246809e+01    1.088111e+00
  2.257922e+01    1.029963e+00
  2.269035e+01    9.937145e-01
  2.280148e+01    9.598035e-01
  2.291261e+01    9.161882e-01
  2.302374e+01    9.064434e-01
  2.313487e+01    9.114013e-01
  2.324600e+01    8.819805e-01
  2.335713e+01    8.853720e-01
  2.346825e+01    8.614920e-01
  2.357938e+01    8.561073e-01
  2.369051e+01    8.320064e-01
  2.380164e+01    8.383899e-01
  2.391277e+01    8.056016e-01
  2.402390e+01    7.868282e-01
  2.413503e+01    7.821916e-01
  2.424616e+01    7.704911e-01
  2.435729e+01    7.964551e-01
  2.446842e+01    8.010020e-01
  2.457954e+01    7.798772e-01
  2.469067e+01    7.915173e-01
  2.480180e+01    8.005161e-01
  2.491293e+01    8.162135e-01
  2.502406e+01    7.867831e-01
  2.513519e+01    8.249422e-01
  2.524632e+01    8.604617e-01
  2.535745e+01    9.037000e-01
  2.546858e+01    9.514079e-01
  2.557971e+01    1.081847e+00
  2.569083e+01    1.351457e+00
  2.580196e+01    2.273575e+00
  2.591309e+01    5.711180e+00
  2.602422e+01    8.465962e+00
  2.613535e+01    3.290303e+00
  2.624648e+01    1.609405e+00
  2.635761e+01    1.160800e+00
  2.646874e+01    1.007795e+00
  2.657987e+01    9.541408e-01
  2.669100e+01    9.383630e-01
  2.680212e+01    9.209104e-01
  2.691325e+01    9.482969e-01
  2.702438e+01    1.038666e+00
  2.713551e+01    1.483151e+00
  2.724664e+01    2.551409e+00
  2.735777e+01    1.691316e+00
  2.746890e+01    1.061046e+00
  2.758003e+01    9.065013e-01
  2.769116e+01    8.532386e-01
  2.780229e+01    8.288054e-01
  2.791342e+01    8.190991e-01
  2.802454e+01    7.936087e-01
  2.813567e+01    7.768624e-01
  2.824680e+01    7.688102e-01
  2.835793e+01    7.926342e-01
  2.846906e+01    7.597333e-01
  2.858019e+01    7.668335e-01
  2.869132e+01    7.678229e-01
  2.880245e+01    7.609000e-01
  2.891358e+01    7.589800e-01
  2.902471e+01    7.243691e-01
  2.913583e+01    7.574599e-01
  2.924696e+01    7.285720e-01
  2.935809e+01    7.515900e-01
  2.946922e+01    7.307383e-01
  2.958035e+01    7.197933e-01
  2.969148e+01    7.369339e-01
  2.980261e+01    7.255284e-01
  2.991374e+01    7.461811e-01
  3.002487e+01    7.566457e-01
  3.013600e+01    7.467511e-01
  3.024712e+01    7.165028e-01
  3.035825e+01    7.138989e-01
  3.046938e+01    7.075680e-01
  3.058051e+01    7.250907e-01
  3.069164e+01    7.327758e-01
  3.080277e+01    7.089140e-01
  3.091390e+01    7.250602e-01
  3.102503e+01    7.260628e-01
  3.113616e+01    7.393565e-01
  3.124729e+01    7.407151e-01
  3.135841e+01    7.546298e-01
  3.146954e+01    7.453402e-01
  3.158067e+01    8.131089e-01
  3.169180e+01    8.800657e-01
  3.180293e+01    1.227972e+00
  3.191406e+01    2.301933e+00
  3.202519e+01    2.015548e+00
  3.213632e+01    1.052662e+00
  3.224745e+01    8.451988e-01
  3.235858e+01    7.816417e-01
  3.246970e+01    7.671195e-01
  3.254908e+01    7.293032e-01