File: XRD/2024-07-27_002_Ru-CGO-ex_Activtation_ramp_000002_data_000125.dat
# == pyFAI calibration ==
# Distance Sample to Detector: 0.4 m
# PONI: 9.750e-02, 1.135e-01 m
# Rotations: -0.000175 0.000000 -0.000000 rad
#
# == Fit2d calibration ==
# Distance Sample-beamCenter: 400.000 mm
# Center: x=1514.000, y=1300.000 pix
# Tilt: 0.010 deg  TiltPlanRot: 0.010 deg
#
# Detector Detector	 Spline= None	 PixelSize= 7.500e-05, 7.500e-05 m
#    Detector has a mask: False
#    Detector has a dark current: False
#    detector has a flat field: False
#
# Wavelength: 6.888e-11 m
# Mask applied: user provided
# Dark current applied: False
# Flat field applied: False
# Polarization factor: 0.99
# Normalization factor: 1.0
# --> /home/myspot/data/2024_07_Rosario/Ru-CGO-ex/2024-07-27_002_Ru-CGO-ex_Activtation_ramp_000002_data_000125.dat
#       q_nm^-1             I
  2.003187e-02    0.000000e+00
  1.311609e-01    5.750740e-02
  2.422899e-01    0.000000e+00
  3.534189e-01    3.827446e-02
  4.645479e-01    3.330647e-02
  5.756770e-01    3.211717e-02
  6.868060e-01    2.540083e-02
  7.979350e-01    1.518408e-01
  9.090640e-01    5.114697e-01
  1.020193e+00    1.109891e+00
  1.131322e+00    1.484522e+00
  1.242451e+00    2.251775e+00
  1.353580e+00    2.527361e+00
  1.464709e+00    2.585892e+00
  1.575838e+00    2.916184e+00
  1.686967e+00    2.878203e+00
  1.798096e+00    2.815966e+00
  1.909225e+00    2.683917e+00
  2.020354e+00    2.750700e+00
  2.131483e+00    2.749232e+00
  2.242612e+00    2.711800e+00
  2.353741e+00    2.743328e+00
  2.464870e+00    2.798521e+00
  2.575999e+00    2.854806e+00
  2.687128e+00    2.757896e+00
  2.798257e+00    2.814830e+00
  2.909386e+00    2.788612e+00
  3.020515e+00    2.883246e+00
  3.131644e+00    2.861260e+00
  3.242773e+00    2.887604e+00
  3.353902e+00    2.974456e+00
  3.465031e+00    2.894091e+00
  3.576160e+00    2.855757e+00
  3.687289e+00    2.926301e+00
  3.798418e+00    2.865835e+00
  3.909547e+00    3.017669e+00
  4.020676e+00    2.854287e+00
  4.131806e+00    2.997362e+00
  4.242935e+00    3.020831e+00
  4.354064e+00    3.016867e+00
  4.465193e+00    3.055178e+00
  4.576322e+00    2.995524e+00
  4.687451e+00    3.104883e+00
  4.798580e+00    3.153404e+00
  4.909709e+00    3.116074e+00
  5.020838e+00    3.060935e+00
  5.131967e+00    3.150023e+00
  5.243096e+00    3.072005e+00
  5.354225e+00    3.126077e+00
  5.465354e+00    3.011941e+00
  5.576483e+00    3.082005e+00
  5.687612e+00    3.037671e+00
  5.798741e+00    2.982131e+00
  5.909870e+00    3.121467e+00
  6.020999e+00    2.922617e+00
  6.132128e+00    3.035557e+00
  6.243257e+00    2.997476e+00
  6.354386e+00    3.012090e+00
  6.465515e+00    3.036032e+00
  6.576644e+00    3.017366e+00
  6.687773e+00    2.942553e+00
  6.798902e+00    2.967169e+00
  6.910031e+00    3.004877e+00
  7.021160e+00    3.017838e+00
  7.132289e+00    3.014208e+00
  7.243418e+00    3.025889e+00
  7.354547e+00    3.046716e+00
  7.465676e+00    2.972374e+00
  7.576805e+00    2.952292e+00
  7.687934e+00    2.890314e+00
  7.799063e+00    2.968336e+00
  7.910192e+00    2.899074e+00
  8.021321e+00    2.900402e+00
  8.132450e+00    2.909034e+00
  8.243579e+00    3.036952e+00
  8.354708e+00    2.883402e+00
  8.465837e+00    2.855341e+00
  8.576966e+00    2.888064e+00
  8.688095e+00    2.782003e+00
  8.799224e+00    2.836031e+00
  8.910353e+00    2.815139e+00
  9.021482e+00    2.892498e+00
  9.132611e+00    2.789132e+00
  9.243740e+00    2.780312e+00
  9.354869e+00    2.771212e+00
  9.465998e+00    2.684366e+00
  9.577127e+00    2.716568e+00
  9.688256e+00    2.721593e+00
  9.799385e+00    2.714417e+00
  9.910514e+00    2.668216e+00
  1.002164e+01    2.643124e+00
  1.013277e+01    2.611094e+00
  1.024390e+01    2.632052e+00
  1.035503e+01    2.593108e+00
  1.046616e+01    2.596205e+00
  1.057729e+01    2.540334e+00
  1.068842e+01    2.523868e+00
  1.079955e+01    2.506900e+00
  1.091068e+01    2.488094e+00
  1.102180e+01    2.483115e+00
  1.113293e+01    2.479459e+00
  1.124406e+01    2.384246e+00
  1.135519e+01    2.455218e+00
  1.146632e+01    2.388701e+00
  1.157745e+01    2.358402e+00
  1.168858e+01    2.338763e+00
  1.179971e+01    2.374281e+00
  1.191084e+01    2.305137e+00
  1.202197e+01    2.329744e+00
  1.213309e+01    2.319276e+00
  1.224422e+01    2.308180e+00
  1.235535e+01    2.288898e+00
  1.246648e+01    2.344427e+00
  1.257761e+01    2.334848e+00
  1.268874e+01    2.457711e+00
  1.279987e+01    2.613443e+00
  1.291100e+01    3.267710e+00
  1.302213e+01    6.085144e+00
  1.313326e+01    1.452670e+01
  1.324438e+01    1.218561e+01
  1.335551e+01    4.429583e+00
  1.346664e+01    2.898351e+00
  1.357777e+01    2.458745e+00
  1.368890e+01    2.269206e+00
  1.380003e+01    2.136131e+00
  1.391116e+01    2.105202e+00
  1.402229e+01    2.055675e+00
  1.413342e+01    2.023044e+00
  1.424455e+01    1.993140e+00
  1.435568e+01    1.929803e+00
  1.446680e+01    1.924151e+00
  1.457793e+01    1.943973e+00
  1.468906e+01    1.890895e+00
  1.480019e+01    1.934751e+00
  1.491132e+01    1.920104e+00
  1.502245e+01    2.210120e+00
  1.513358e+01    3.391057e+00
  1.524471e+01    5.665435e+00
  1.535584e+01    3.885952e+00
  1.546697e+01    2.232012e+00
  1.557809e+01    1.907820e+00
  1.568922e+01    1.720495e+00
  1.580035e+01    1.686540e+00
  1.591148e+01    1.622249e+00
  1.602261e+01    1.602336e+00
  1.613374e+01    1.524217e+00
  1.624487e+01    1.534511e+00
  1.635600e+01    1.530493e+00
  1.646713e+01    1.502456e+00
  1.657826e+01    1.481615e+00
  1.668938e+01    1.481158e+00
  1.680051e+01    1.442246e+00
  1.691164e+01    1.453010e+00
  1.702277e+01    1.385759e+00
  1.713390e+01    1.391872e+00
  1.724503e+01    1.390809e+00
  1.735616e+01    1.353773e+00
  1.746729e+01    1.387102e+00
  1.757842e+01    1.333733e+00
  1.768955e+01    1.326408e+00
  1.780067e+01    1.293412e+00
  1.791180e+01    1.307136e+00
  1.802293e+01    1.297100e+00
  1.813406e+01    1.270324e+00
  1.824519e+01    1.251599e+00
  1.835632e+01    1.265596e+00
  1.846745e+01    1.249672e+00
  1.857858e+01    1.247919e+00
  1.868971e+01    1.244883e+00
  1.880084e+01    1.165792e+00
  1.891196e+01    1.204871e+00
  1.902309e+01    1.199181e+00
  1.913422e+01    1.194008e+00
  1.924535e+01    1.178030e+00
  1.935648e+01    1.184572e+00
  1.946761e+01    1.171430e+00
  1.957874e+01    1.124293e+00
  1.968987e+01    1.130694e+00
  1.980100e+01    1.135963e+00
  1.991213e+01    1.129256e+00
  2.002325e+01    1.090835e+00
  2.013438e+01    1.134860e+00
  2.024551e+01    1.087333e+00
  2.035664e+01    1.085694e+00
  2.046777e+01    1.097833e+00
  2.057890e+01    1.086229e+00
  2.069003e+01    1.086207e+00
  2.080116e+01    1.059494e+00
  2.091229e+01    1.079657e+00
  2.102342e+01    1.065949e+00
  2.113455e+01    1.069560e+00
  2.124567e+01    1.096373e+00
  2.135680e+01    1.125329e+00
  2.146793e+01    1.201603e+00
  2.157906e+01    1.478355e+00
  2.169019e+01    2.233604e+00
  2.180132e+01    5.402773e+00
  2.191245e+01    9.522095e+00
  2.202358e+01    4.036133e+00
  2.213471e+01    1.845272e+00
  2.224584e+01    1.308866e+00
  2.235696e+01    1.128014e+00
  2.246809e+01    1.035235e+00
  2.257922e+01    9.880101e-01
  2.269035e+01    9.721585e-01
  2.280148e+01    9.286313e-01
  2.291261e+01    8.996722e-01
  2.302374e+01    8.818318e-01
  2.313487e+01    8.725629e-01
  2.324600e+01    8.745648e-01
  2.335713e+01    8.685626e-01
  2.346825e+01    8.315981e-01
  2.357938e+01    8.364742e-01
  2.369051e+01    8.219522e-01
  2.380164e+01    8.026704e-01
  2.391277e+01    8.158740e-01
  2.402390e+01    7.779366e-01
  2.413503e+01    7.771062e-01
  2.424616e+01    7.721170e-01
  2.435729e+01    7.810596e-01
  2.446842e+01    7.799153e-01
  2.457954e+01    7.980157e-01
  2.469067e+01    8.026932e-01
  2.480180e+01    7.921200e-01
  2.491293e+01    7.953477e-01
  2.502406e+01    7.913892e-01
  2.513519e+01    7.990110e-01
  2.524632e+01    8.381317e-01
  2.535745e+01    8.988823e-01
  2.546858e+01    9.411666e-01
  2.557971e+01    1.061711e+00
  2.569083e+01    1.401430e+00
  2.580196e+01    2.521092e+00
  2.591309e+01    6.154014e+00
  2.602422e+01    6.506181e+00
  2.613535e+01    2.352442e+00
  2.624648e+01    1.344612e+00
  2.635761e+01    1.067999e+00
  2.646874e+01    9.578592e-01
  2.657987e+01    8.980718e-01
  2.669100e+01    8.823982e-01
  2.680212e+01    9.072435e-01
  2.691325e+01    9.138249e-01
  2.702438e+01    1.046762e+00
  2.713551e+01    1.588659e+00
  2.724664e+01    2.288963e+00
  2.735777e+01    1.343983e+00
  2.746890e+01    9.635440e-01
  2.758003e+01    8.704622e-01
  2.769116e+01    8.187131e-01
  2.780229e+01    7.943349e-01
  2.791342e+01    7.973594e-01
  2.802454e+01    7.958326e-01
  2.813567e+01    7.490848e-01
  2.824680e+01    7.698873e-01
  2.835793e+01    7.771328e-01
  2.846906e+01    7.525140e-01
  2.858019e+01    7.486361e-01
  2.869132e+01    7.424460e-01
  2.880245e+01    7.436391e-01
  2.891358e+01    7.357022e-01
  2.902471e+01    7.293801e-01
  2.913583e+01    7.389989e-01
  2.924696e+01    7.495412e-01
  2.935809e+01    7.255320e-01
  2.946922e+01    7.004551e-01
  2.958035e+01    7.351494e-01
  2.969148e+01    7.072434e-01
  2.980261e+01    7.075921e-01
  2.991374e+01    7.594859e-01
  3.002487e+01    7.351875e-01
  3.013600e+01    7.211559e-01
  3.024712e+01    7.121347e-01
  3.035825e+01    6.951823e-01
  3.046938e+01    7.053861e-01
  3.058051e+01    7.061144e-01
  3.069164e+01    7.091836e-01
  3.080277e+01    6.989416e-01
  3.091390e+01    7.085992e-01
  3.102503e+01    7.050428e-01
  3.113616e+01    7.100667e-01
  3.124729e+01    7.347981e-01
  3.135841e+01    7.365580e-01
  3.146954e+01    7.333522e-01
  3.158067e+01    7.742286e-01
  3.169180e+01    9.091853e-01
  3.180293e+01    1.346807e+00
  3.191406e+01    2.260677e+00
  3.202519e+01    1.496617e+00
  3.213632e+01    9.040346e-01
  3.224745e+01    7.734166e-01
  3.235858e+01    7.467619e-01
  3.246970e+01    7.342270e-01
  3.254908e+01    7.418910e-01