File: XRD/2024-07-27_002_Ru-CGO-ex_Activtation_ramp_000002_data_000185.dat
# == pyFAI calibration ==
# Distance Sample to Detector: 0.4 m
# PONI: 9.750e-02, 1.135e-01 m
# Rotations: -0.000175 0.000000 -0.000000 rad
#
# == Fit2d calibration ==
# Distance Sample-beamCenter: 400.000 mm
# Center: x=1514.000, y=1300.000 pix
# Tilt: 0.010 deg  TiltPlanRot: 0.010 deg
#
# Detector Detector	 Spline= None	 PixelSize= 7.500e-05, 7.500e-05 m
#    Detector has a mask: False
#    Detector has a dark current: False
#    detector has a flat field: False
#
# Wavelength: 6.888e-11 m
# Mask applied: user provided
# Dark current applied: False
# Flat field applied: False
# Polarization factor: 0.99
# Normalization factor: 1.0
# --> /home/myspot/data/2024_07_Rosario/Ru-CGO-ex/2024-07-27_002_Ru-CGO-ex_Activtation_ramp_000002_data_000185.dat
#       q_nm^-1             I
  2.003187e-02    0.000000e+00
  1.311609e-01    4.520151e-02
  2.422899e-01    2.514863e-02
  3.534189e-01    1.963219e-02
  4.645479e-01    7.012719e-02
  5.756770e-01    3.576832e-02
  6.868060e-01    4.378666e-02
  7.979350e-01    1.787496e-01
  9.090640e-01    5.572639e-01
  1.020193e+00    1.123762e+00
  1.131322e+00    1.430273e+00
  1.242451e+00    2.094900e+00
  1.353580e+00    2.379317e+00
  1.464709e+00    2.739300e+00
  1.575838e+00    2.918667e+00
  1.686967e+00    2.713510e+00
  1.798096e+00    2.697829e+00
  1.909225e+00    2.813737e+00
  2.020354e+00    2.635653e+00
  2.131483e+00    2.840908e+00
  2.242612e+00    2.779146e+00
  2.353741e+00    2.758754e+00
  2.464870e+00    2.735183e+00
  2.575999e+00    2.756921e+00
  2.687128e+00    2.873099e+00
  2.798257e+00    2.835625e+00
  2.909386e+00    2.742272e+00
  3.020515e+00    2.825607e+00
  3.131644e+00    2.918492e+00
  3.242773e+00    2.864041e+00
  3.353902e+00    2.947864e+00
  3.465031e+00    2.896375e+00
  3.576160e+00    2.989776e+00
  3.687289e+00    3.026685e+00
  3.798418e+00    3.004908e+00
  3.909547e+00    2.983125e+00
  4.020676e+00    2.977142e+00
  4.131806e+00    2.989681e+00
  4.242935e+00    3.080548e+00
  4.354064e+00    3.051849e+00
  4.465193e+00    3.066588e+00
  4.576322e+00    3.085539e+00
  4.687451e+00    3.127138e+00
  4.798580e+00    3.101408e+00
  4.909709e+00    3.140113e+00
  5.020838e+00    3.138273e+00
  5.131967e+00    3.117385e+00
  5.243096e+00    3.140539e+00
  5.354225e+00    3.150374e+00
  5.465354e+00    3.080951e+00
  5.576483e+00    3.105694e+00
  5.687612e+00    3.128045e+00
  5.798741e+00    3.071587e+00
  5.909870e+00    3.026122e+00
  6.020999e+00    3.015118e+00
  6.132128e+00    3.103718e+00
  6.243257e+00    3.055068e+00
  6.354386e+00    3.051887e+00
  6.465515e+00    3.088577e+00
  6.576644e+00    3.059236e+00
  6.687773e+00    3.014054e+00
  6.798902e+00    3.148190e+00
  6.910031e+00    3.011865e+00
  7.021160e+00    3.033915e+00
  7.132289e+00    3.059339e+00
  7.243418e+00    3.035244e+00
  7.354547e+00    3.072021e+00
  7.465676e+00    2.939168e+00
  7.576805e+00    2.984363e+00
  7.687934e+00    2.978867e+00
  7.799063e+00    3.033459e+00
  7.910192e+00    3.058745e+00
  8.021321e+00    2.934075e+00
  8.132450e+00    2.974363e+00
  8.243579e+00    2.994146e+00
  8.354708e+00    2.921907e+00
  8.465837e+00    2.902044e+00
  8.576966e+00    2.871333e+00
  8.688095e+00    2.969067e+00
  8.799224e+00    2.846437e+00
  8.910353e+00    2.829527e+00
  9.021482e+00    2.809979e+00
  9.132611e+00    2.835164e+00
  9.243740e+00    2.867554e+00
  9.354869e+00    2.730840e+00
  9.465998e+00    2.799583e+00
  9.577127e+00    2.776508e+00
  9.688256e+00    2.785908e+00
  9.799385e+00    2.720100e+00
  9.910514e+00    2.712025e+00
  1.002164e+01    2.735021e+00
  1.013277e+01    2.657651e+00
  1.024390e+01    2.626280e+00
  1.035503e+01    2.616119e+00
  1.046616e+01    2.628832e+00
  1.057729e+01    2.573326e+00
  1.068842e+01    2.594667e+00
  1.079955e+01    2.570563e+00
  1.091068e+01    2.539290e+00
  1.102180e+01    2.511376e+00
  1.113293e+01    2.483739e+00
  1.124406e+01    2.420746e+00
  1.135519e+01    2.457890e+00
  1.146632e+01    2.402603e+00
  1.157745e+01    2.350129e+00
  1.168858e+01    2.382699e+00
  1.179971e+01    2.313441e+00
  1.191084e+01    2.379279e+00
  1.202197e+01    2.355190e+00
  1.213309e+01    2.324230e+00
  1.224422e+01    2.340345e+00
  1.235535e+01    2.374990e+00
  1.246648e+01    2.358153e+00
  1.257761e+01    2.373067e+00
  1.268874e+01    2.450115e+00
  1.279987e+01    2.643547e+00
  1.291100e+01    3.324912e+00
  1.302213e+01    6.077317e+00
  1.313326e+01    1.388412e+01
  1.324438e+01    1.042058e+01
  1.335551e+01    4.039466e+00
  1.346664e+01    2.798908e+00
  1.357777e+01    2.370745e+00
  1.368890e+01    2.228490e+00
  1.380003e+01    2.124481e+00
  1.391116e+01    2.108875e+00
  1.402229e+01    2.056726e+00
  1.413342e+01    2.017945e+00
  1.424455e+01    1.977853e+00
  1.435568e+01    1.970229e+00
  1.446680e+01    1.955738e+00
  1.457793e+01    1.929246e+00
  1.468906e+01    1.896098e+00
  1.480019e+01    1.927824e+00
  1.491132e+01    1.956384e+00
  1.502245e+01    2.233983e+00
  1.513358e+01    3.399660e+00
  1.524471e+01    5.439806e+00
  1.535584e+01    3.554136e+00
  1.546697e+01    2.131193e+00
  1.557809e+01    1.809157e+00
  1.568922e+01    1.758544e+00
  1.580035e+01    1.683526e+00
  1.591148e+01    1.653653e+00
  1.602261e+01    1.568647e+00
  1.613374e+01    1.582621e+00
  1.624487e+01    1.554304e+00
  1.635600e+01    1.526337e+00
  1.646713e+01    1.539021e+00
  1.657826e+01    1.541034e+00
  1.668938e+01    1.487492e+00
  1.680051e+01    1.476708e+00
  1.691164e+01    1.496457e+00
  1.702277e+01    1.438694e+00
  1.713390e+01    1.424271e+00
  1.724503e+01    1.416503e+00
  1.735616e+01    1.374574e+00
  1.746729e+01    1.371340e+00
  1.757842e+01    1.350447e+00
  1.768955e+01    1.361936e+00
  1.780067e+01    1.339761e+00
  1.791180e+01    1.318569e+00
  1.802293e+01    1.310107e+00
  1.813406e+01    1.289397e+00
  1.824519e+01    1.265438e+00
  1.835632e+01    1.276651e+00
  1.846745e+01    1.273161e+00
  1.857858e+01    1.206001e+00
  1.868971e+01    1.215299e+00
  1.880084e+01    1.226372e+00
  1.891196e+01    1.222783e+00
  1.902309e+01    1.210563e+00
  1.913422e+01    1.187765e+00
  1.924535e+01    1.177825e+00
  1.935648e+01    1.175429e+00
  1.946761e+01    1.157802e+00
  1.957874e+01    1.145757e+00
  1.968987e+01    1.117546e+00
  1.980100e+01    1.142479e+00
  1.991213e+01    1.128010e+00
  2.002325e+01    1.104939e+00
  2.013438e+01    1.126224e+00
  2.024551e+01    1.077767e+00
  2.035664e+01    1.101680e+00
  2.046777e+01    1.078332e+00
  2.057890e+01    1.075878e+00
  2.069003e+01    1.062653e+00
  2.080116e+01    1.066210e+00
  2.091229e+01    1.091473e+00
  2.102342e+01    1.068710e+00
  2.113455e+01    1.068857e+00
  2.124567e+01    1.108282e+00
  2.135680e+01    1.156740e+00
  2.146793e+01    1.218605e+00
  2.157906e+01    1.467857e+00
  2.169019e+01    2.319537e+00
  2.180132e+01    5.475272e+00
  2.191245e+01    8.656618e+00
  2.202358e+01    3.483225e+00
  2.213471e+01    1.699117e+00
  2.224584e+01    1.247152e+00
  2.235696e+01    1.097367e+00
  2.246809e+01    1.015908e+00
  2.257922e+01    9.909235e-01
  2.269035e+01    9.623679e-01
  2.280148e+01    9.206285e-01
  2.291261e+01    9.055789e-01
  2.302374e+01    8.857744e-01
  2.313487e+01    8.718477e-01
  2.324600e+01    8.635348e-01
  2.335713e+01    8.745764e-01
  2.346825e+01    8.485358e-01
  2.357938e+01    8.407679e-01
  2.369051e+01    8.564884e-01
  2.380164e+01    8.071359e-01
  2.391277e+01    7.968202e-01
  2.402390e+01    7.778957e-01
  2.413503e+01    7.689226e-01
  2.424616e+01    7.624987e-01
  2.435729e+01    7.850899e-01
  2.446842e+01    7.817098e-01
  2.457954e+01    7.933587e-01
  2.469067e+01    7.952308e-01
  2.480180e+01    7.814071e-01
  2.491293e+01    7.946131e-01
  2.502406e+01    8.106480e-01
  2.513519e+01    8.048203e-01
  2.524632e+01    8.563261e-01
  2.535745e+01    8.739066e-01
  2.546858e+01    9.632676e-01
  2.557971e+01    1.060066e+00
  2.569083e+01    1.392130e+00
  2.580196e+01    2.647678e+00
  2.591309e+01    6.136423e+00
  2.602422e+01    5.335844e+00
  2.613535e+01    2.038437e+00
  2.624648e+01    1.261468e+00
  2.635761e+01    1.007812e+00
  2.646874e+01    9.245164e-01
  2.657987e+01    8.699034e-01
  2.669100e+01    8.604758e-01
  2.680212e+01    8.730507e-01
  2.691325e+01    8.924313e-01
  2.702438e+01    1.029364e+00
  2.713551e+01    1.616370e+00
  2.724664e+01    2.054123e+00
  2.735777e+01    1.218664e+00
  2.746890e+01    9.430762e-01
  2.758003e+01    8.379700e-01
  2.769116e+01    8.105772e-01
  2.780229e+01    8.051193e-01
  2.791342e+01    8.135753e-01
  2.802454e+01    7.718482e-01
  2.813567e+01    7.683038e-01
  2.824680e+01    7.560930e-01
  2.835793e+01    7.469370e-01
  2.846906e+01    7.738004e-01
  2.858019e+01    7.725233e-01
  2.869132e+01    7.523659e-01
  2.880245e+01    7.522320e-01
  2.891358e+01    7.223670e-01
  2.902471e+01    7.423116e-01
  2.913583e+01    7.361885e-01
  2.924696e+01    7.269266e-01
  2.935809e+01    7.275062e-01
  2.946922e+01    7.143766e-01
  2.958035e+01    7.312101e-01
  2.969148e+01    7.108088e-01
  2.980261e+01    7.146955e-01
  2.991374e+01    7.204174e-01
  3.002487e+01    7.221305e-01
  3.013600e+01    7.259568e-01
  3.024712e+01    7.154150e-01
  3.035825e+01    6.885312e-01
  3.046938e+01    6.953914e-01
  3.058051e+01    7.107341e-01
  3.069164e+01    7.029042e-01
  3.080277e+01    6.735708e-01
  3.091390e+01    6.830356e-01
  3.102503e+01    7.050437e-01
  3.113616e+01    7.037395e-01
  3.124729e+01    7.087826e-01
  3.135841e+01    7.023084e-01
  3.146954e+01    7.418117e-01
  3.158067e+01    8.008348e-01
  3.169180e+01    9.218421e-01
  3.180293e+01    1.405094e+00
  3.191406e+01    2.105199e+00
  3.202519e+01    1.283428e+00
  3.213632e+01    8.686347e-01
  3.224745e+01    7.742149e-01
  3.235858e+01    7.451921e-01
  3.246970e+01    7.052265e-01
  3.254908e+01    6.895375e-01