File: XRD/2024-07-27_002_Ru-CGO-ex_Activtation_ramp_000002_data_000140.dat
# == pyFAI calibration ==
# Distance Sample to Detector: 0.4 m
# PONI: 9.750e-02, 1.135e-01 m
# Rotations: -0.000175 0.000000 -0.000000 rad
#
# == Fit2d calibration ==
# Distance Sample-beamCenter: 400.000 mm
# Center: x=1514.000, y=1300.000 pix
# Tilt: 0.010 deg  TiltPlanRot: 0.010 deg
#
# Detector Detector	 Spline= None	 PixelSize= 7.500e-05, 7.500e-05 m
#    Detector has a mask: False
#    Detector has a dark current: False
#    detector has a flat field: False
#
# Wavelength: 6.888e-11 m
# Mask applied: user provided
# Dark current applied: False
# Flat field applied: False
# Polarization factor: 0.99
# Normalization factor: 1.0
# --> /home/myspot/data/2024_07_Rosario/Ru-CGO-ex/2024-07-27_002_Ru-CGO-ex_Activtation_ramp_000002_data_000140.dat
#       q_nm^-1             I
  2.003187e-02    9.939744e-02
  1.311609e-01    4.298056e-02
  2.422899e-01    3.339208e-02
  3.534189e-01    3.320926e-02
  4.645479e-01    2.585135e-02
  5.756770e-01    1.431955e-02
  6.868060e-01    4.218122e-02
  7.979350e-01    1.473579e-01
  9.090640e-01    5.594980e-01
  1.020193e+00    1.105644e+00
  1.131322e+00    1.394673e+00
  1.242451e+00    2.098725e+00
  1.353580e+00    2.676892e+00
  1.464709e+00    2.614895e+00
  1.575838e+00    2.834336e+00
  1.686967e+00    2.825869e+00
  1.798096e+00    2.891407e+00
  1.909225e+00    2.660611e+00
  2.020354e+00    2.661825e+00
  2.131483e+00    2.704496e+00
  2.242612e+00    2.671618e+00
  2.353741e+00    2.659803e+00
  2.464870e+00    2.720946e+00
  2.575999e+00    2.716450e+00
  2.687128e+00    2.849493e+00
  2.798257e+00    2.834656e+00
  2.909386e+00    2.826700e+00
  3.020515e+00    2.842257e+00
  3.131644e+00    2.775346e+00
  3.242773e+00    2.817469e+00
  3.353902e+00    2.963066e+00
  3.465031e+00    2.874474e+00
  3.576160e+00    2.893416e+00
  3.687289e+00    2.928834e+00
  3.798418e+00    2.886127e+00
  3.909547e+00    3.003570e+00
  4.020676e+00    2.904708e+00
  4.131806e+00    2.971823e+00
  4.242935e+00    3.055986e+00
  4.354064e+00    3.018560e+00
  4.465193e+00    3.065203e+00
  4.576322e+00    3.026827e+00
  4.687451e+00    2.982677e+00
  4.798580e+00    3.048257e+00
  4.909709e+00    3.153075e+00
  5.020838e+00    3.056264e+00
  5.131967e+00    3.082669e+00
  5.243096e+00    3.119616e+00
  5.354225e+00    3.101376e+00
  5.465354e+00    3.098663e+00
  5.576483e+00    3.095487e+00
  5.687612e+00    3.047112e+00
  5.798741e+00    3.006798e+00
  5.909870e+00    2.937618e+00
  6.020999e+00    2.962976e+00
  6.132128e+00    3.086792e+00
  6.243257e+00    3.028513e+00
  6.354386e+00    3.010113e+00
  6.465515e+00    2.958727e+00
  6.576644e+00    2.969200e+00
  6.687773e+00    3.091290e+00
  6.798902e+00    2.972347e+00
  6.910031e+00    2.969889e+00
  7.021160e+00    3.009435e+00
  7.132289e+00    2.995568e+00
  7.243418e+00    2.967554e+00
  7.354547e+00    2.906579e+00
  7.465676e+00    2.945632e+00
  7.576805e+00    2.927529e+00
  7.687934e+00    2.929627e+00
  7.799063e+00    2.956482e+00
  7.910192e+00    2.909446e+00
  8.021321e+00    2.829892e+00
  8.132450e+00    2.956166e+00
  8.243579e+00    2.973229e+00
  8.354708e+00    2.909516e+00
  8.465837e+00    2.840928e+00
  8.576966e+00    2.839527e+00
  8.688095e+00    2.819870e+00
  8.799224e+00    2.778869e+00
  8.910353e+00    2.764075e+00
  9.021482e+00    2.747355e+00
  9.132611e+00    2.779936e+00
  9.243740e+00    2.747790e+00
  9.354869e+00    2.736189e+00
  9.465998e+00    2.727068e+00
  9.577127e+00    2.789540e+00
  9.688256e+00    2.708715e+00
  9.799385e+00    2.662095e+00
  9.910514e+00    2.708897e+00
  1.002164e+01    2.643467e+00
  1.013277e+01    2.588188e+00
  1.024390e+01    2.669144e+00
  1.035503e+01    2.648447e+00
  1.046616e+01    2.563981e+00
  1.057729e+01    2.513034e+00
  1.068842e+01    2.573452e+00
  1.079955e+01    2.535600e+00
  1.091068e+01    2.459304e+00
  1.102180e+01    2.535971e+00
  1.113293e+01    2.444846e+00
  1.124406e+01    2.420482e+00
  1.135519e+01    2.398143e+00
  1.146632e+01    2.396116e+00
  1.157745e+01    2.349211e+00
  1.168858e+01    2.291781e+00
  1.179971e+01    2.360281e+00
  1.191084e+01    2.300015e+00
  1.202197e+01    2.309431e+00
  1.213309e+01    2.354860e+00
  1.224422e+01    2.299805e+00
  1.235535e+01    2.328706e+00
  1.246648e+01    2.354915e+00
  1.257761e+01    2.346672e+00
  1.268874e+01    2.409454e+00
  1.279987e+01    2.644473e+00
  1.291100e+01    3.282653e+00
  1.302213e+01    6.222982e+00
  1.313326e+01    1.447816e+01
  1.324438e+01    1.146817e+01
  1.335551e+01    4.292558e+00
  1.346664e+01    2.870490e+00
  1.357777e+01    2.428313e+00
  1.368890e+01    2.217023e+00
  1.380003e+01    2.161699e+00
  1.391116e+01    2.053248e+00
  1.402229e+01    2.078303e+00
  1.413342e+01    1.986033e+00
  1.424455e+01    1.952363e+00
  1.435568e+01    1.924372e+00
  1.446680e+01    1.918771e+00
  1.457793e+01    1.886958e+00
  1.468906e+01    1.900577e+00
  1.480019e+01    1.899395e+00
  1.491132e+01    1.957423e+00
  1.502245e+01    2.208475e+00
  1.513358e+01    3.392606e+00
  1.524471e+01    5.621303e+00
  1.535584e+01    3.750428e+00
  1.546697e+01    2.187360e+00
  1.557809e+01    1.844617e+00
  1.568922e+01    1.709137e+00
  1.580035e+01    1.662186e+00
  1.591148e+01    1.589533e+00
  1.602261e+01    1.565671e+00
  1.613374e+01    1.604688e+00
  1.624487e+01    1.532883e+00
  1.635600e+01    1.493461e+00
  1.646713e+01    1.494831e+00
  1.657826e+01    1.508438e+00
  1.668938e+01    1.448925e+00
  1.680051e+01    1.433372e+00
  1.691164e+01    1.420375e+00
  1.702277e+01    1.431558e+00
  1.713390e+01    1.389032e+00
  1.724503e+01    1.387839e+00
  1.735616e+01    1.349052e+00
  1.746729e+01    1.357360e+00
  1.757842e+01    1.354307e+00
  1.768955e+01    1.306190e+00
  1.780067e+01    1.329121e+00
  1.791180e+01    1.311033e+00
  1.802293e+01    1.291072e+00
  1.813406e+01    1.278135e+00
  1.824519e+01    1.264550e+00
  1.835632e+01    1.220170e+00
  1.846745e+01    1.257502e+00
  1.857858e+01    1.257049e+00
  1.868971e+01    1.226218e+00
  1.880084e+01    1.200121e+00
  1.891196e+01    1.187137e+00
  1.902309e+01    1.206862e+00
  1.913422e+01    1.206991e+00
  1.924535e+01    1.179663e+00
  1.935648e+01    1.151537e+00
  1.946761e+01    1.144984e+00
  1.957874e+01    1.151065e+00
  1.968987e+01    1.122845e+00
  1.980100e+01    1.126286e+00
  1.991213e+01    1.103461e+00
  2.002325e+01    1.095766e+00
  2.013438e+01    1.126584e+00
  2.024551e+01    1.108031e+00
  2.035664e+01    1.074881e+00
  2.046777e+01    1.063925e+00
  2.057890e+01    1.054234e+00
  2.069003e+01    1.085204e+00
  2.080116e+01    1.065503e+00
  2.091229e+01    1.059971e+00
  2.102342e+01    1.081351e+00
  2.113455e+01    1.067903e+00
  2.124567e+01    1.100049e+00
  2.135680e+01    1.127844e+00
  2.146793e+01    1.228093e+00
  2.157906e+01    1.467843e+00
  2.169019e+01    2.308859e+00
  2.180132e+01    5.521380e+00
  2.191245e+01    9.196639e+00
  2.202358e+01    3.798492e+00
  2.213471e+01    1.792184e+00
  2.224584e+01    1.306429e+00
  2.235696e+01    1.118954e+00
  2.246809e+01    1.050242e+00
  2.257922e+01    9.887662e-01
  2.269035e+01    9.642997e-01
  2.280148e+01    9.220740e-01
  2.291261e+01    9.056762e-01
  2.302374e+01    8.860760e-01
  2.313487e+01    8.806576e-01
  2.324600e+01    8.611915e-01
  2.335713e+01    8.525531e-01
  2.346825e+01    8.328666e-01
  2.357938e+01    8.269813e-01
  2.369051e+01    8.035387e-01
  2.380164e+01    8.151690e-01
  2.391277e+01    8.212902e-01
  2.402390e+01    7.966419e-01
  2.413503e+01    7.886116e-01
  2.424616e+01    7.618056e-01
  2.435729e+01    7.679738e-01
  2.446842e+01    7.827148e-01
  2.457954e+01    7.851847e-01
  2.469067e+01    7.915046e-01
  2.480180e+01    7.870167e-01
  2.491293e+01    7.822856e-01
  2.502406e+01    8.020718e-01
  2.513519e+01    7.945169e-01
  2.524632e+01    8.446419e-01
  2.535745e+01    8.571516e-01
  2.546858e+01    9.384399e-01
  2.557971e+01    1.062886e+00
  2.569083e+01    1.383346e+00
  2.580196e+01    2.591660e+00
  2.591309e+01    6.300162e+00
  2.602422e+01    6.014327e+00
  2.613535e+01    2.218117e+00
  2.624648e+01    1.316306e+00
  2.635761e+01    1.035301e+00
  2.646874e+01    9.484990e-01
  2.657987e+01    9.087870e-01
  2.669100e+01    8.970314e-01
  2.680212e+01    8.911393e-01
  2.691325e+01    9.069582e-01
  2.702438e+01    1.060850e+00
  2.713551e+01    1.605912e+00
  2.724664e+01    2.171603e+00
  2.735777e+01    1.274317e+00
  2.746890e+01    9.403197e-01
  2.758003e+01    8.615340e-01
  2.769116e+01    8.240348e-01
  2.780229e+01    8.214130e-01
  2.791342e+01    7.807680e-01
  2.802454e+01    7.691042e-01
  2.813567e+01    7.624530e-01
  2.824680e+01    7.601163e-01
  2.835793e+01    7.708525e-01
  2.846906e+01    7.524343e-01
  2.858019e+01    7.355118e-01
  2.869132e+01    7.298854e-01
  2.880245e+01    7.318292e-01
  2.891358e+01    7.406606e-01
  2.902471e+01    7.461677e-01
  2.913583e+01    7.405612e-01
  2.924696e+01    7.347942e-01
  2.935809e+01    7.501065e-01
  2.946922e+01    7.132565e-01
  2.958035e+01    7.085617e-01
  2.969148e+01    7.178018e-01
  2.980261e+01    7.194776e-01
  2.991374e+01    7.067373e-01
  3.002487e+01    7.439201e-01
  3.013600e+01    7.088183e-01
  3.024712e+01    7.233285e-01
  3.035825e+01    7.046146e-01
  3.046938e+01    7.274448e-01
  3.058051e+01    7.064198e-01
  3.069164e+01    7.008717e-01
  3.080277e+01    7.199207e-01
  3.091390e+01    7.187664e-01
  3.102503e+01    7.114823e-01
  3.113616e+01    7.145708e-01
  3.124729e+01    7.365620e-01
  3.135841e+01    7.255747e-01
  3.146954e+01    7.477934e-01
  3.158067e+01    7.886306e-01
  3.169180e+01    9.290168e-01
  3.180293e+01    1.361515e+00
  3.191406e+01    2.241952e+00
  3.202519e+01    1.411151e+00
  3.213632e+01    9.173976e-01
  3.224745e+01    7.849352e-01
  3.235858e+01    7.446768e-01
  3.246970e+01    7.377688e-01
  3.254908e+01    7.232604e-01