File: XRD/2024-07-27_002_Ru-CGO-ex_Activtation_ramp_000002_data_000040.dat
# == pyFAI calibration ==
# Distance Sample to Detector: 0.4 m
# PONI: 9.750e-02, 1.135e-01 m
# Rotations: -0.000175 0.000000 -0.000000 rad
#
# == Fit2d calibration ==
# Distance Sample-beamCenter: 400.000 mm
# Center: x=1514.000, y=1300.000 pix
# Tilt: 0.010 deg  TiltPlanRot: 0.010 deg
#
# Detector Detector	 Spline= None	 PixelSize= 7.500e-05, 7.500e-05 m
#    Detector has a mask: False
#    Detector has a dark current: False
#    detector has a flat field: False
#
# Wavelength: 6.888e-11 m
# Mask applied: user provided
# Dark current applied: False
# Flat field applied: False
# Polarization factor: 0.99
# Normalization factor: 1.0
# --> /home/myspot/data/2024_07_Rosario/Ru-CGO-ex/2024-07-27_002_Ru-CGO-ex_Activtation_ramp_000002_data_000040.dat
#       q_nm^-1             I
  2.003187e-02    0.000000e+00
  1.311609e-01    4.016135e-02
  2.422899e-01    3.930914e-02
  3.534189e-01    3.390073e-02
  4.645479e-01    2.830587e-02
  5.756770e-01    5.321722e-02
  6.868060e-01    4.471717e-02
  7.979350e-01    1.477424e-01
  9.090640e-01    5.866295e-01
  1.020193e+00    1.157220e+00
  1.131322e+00    1.419902e+00
  1.242451e+00    2.225262e+00
  1.353580e+00    2.601222e+00
  1.464709e+00    2.844339e+00
  1.575838e+00    2.955229e+00
  1.686967e+00    3.039969e+00
  1.798096e+00    2.875095e+00
  1.909225e+00    2.832202e+00
  2.020354e+00    2.717893e+00
  2.131483e+00    2.764351e+00
  2.242612e+00    2.743663e+00
  2.353741e+00    2.791884e+00
  2.464870e+00    2.853772e+00
  2.575999e+00    2.811370e+00
  2.687128e+00    2.887346e+00
  2.798257e+00    2.818110e+00
  2.909386e+00    2.831773e+00
  3.020515e+00    2.918328e+00
  3.131644e+00    2.927674e+00
  3.242773e+00    2.954971e+00
  3.353902e+00    2.928226e+00
  3.465031e+00    2.968669e+00
  3.576160e+00    2.957068e+00
  3.687289e+00    3.006266e+00
  3.798418e+00    3.006641e+00
  3.909547e+00    3.006392e+00
  4.020676e+00    3.015100e+00
  4.131806e+00    3.016272e+00
  4.242935e+00    3.056388e+00
  4.354064e+00    2.998889e+00
  4.465193e+00    3.069088e+00
  4.576322e+00    3.099250e+00
  4.687451e+00    3.138715e+00
  4.798580e+00    3.155343e+00
  4.909709e+00    3.183801e+00
  5.020838e+00    3.082067e+00
  5.131967e+00    3.205932e+00
  5.243096e+00    3.194558e+00
  5.354225e+00    3.093787e+00
  5.465354e+00    3.060815e+00
  5.576483e+00    3.110046e+00
  5.687612e+00    3.087579e+00
  5.798741e+00    2.989322e+00
  5.909870e+00    3.020103e+00
  6.020999e+00    3.080350e+00
  6.132128e+00    3.073439e+00
  6.243257e+00    2.976628e+00
  6.354386e+00    3.029263e+00
  6.465515e+00    3.036568e+00
  6.576644e+00    3.071905e+00
  6.687773e+00    3.053298e+00
  6.798902e+00    3.035693e+00
  6.910031e+00    3.002809e+00
  7.021160e+00    3.062450e+00
  7.132289e+00    3.005124e+00
  7.243418e+00    2.920077e+00
  7.354547e+00    2.989462e+00
  7.465676e+00    3.036017e+00
  7.576805e+00    3.038515e+00
  7.687934e+00    2.935174e+00
  7.799063e+00    2.996581e+00
  7.910192e+00    2.950014e+00
  8.021321e+00    2.925579e+00
  8.132450e+00    3.016761e+00
  8.243579e+00    2.950616e+00
  8.354708e+00    2.947255e+00
  8.465837e+00    2.881630e+00
  8.576966e+00    2.906101e+00
  8.688095e+00    2.798971e+00
  8.799224e+00    2.864612e+00
  8.910353e+00    2.803989e+00
  9.021482e+00    2.858239e+00
  9.132611e+00    2.812649e+00
  9.243740e+00    2.776627e+00
  9.354869e+00    2.759626e+00
  9.465998e+00    2.739598e+00
  9.577127e+00    2.779815e+00
  9.688256e+00    2.800670e+00
  9.799385e+00    2.751974e+00
  9.910514e+00    2.738344e+00
  1.002164e+01    2.710281e+00
  1.013277e+01    2.643133e+00
  1.024390e+01    2.637372e+00
  1.035503e+01    2.599100e+00
  1.046616e+01    2.653606e+00
  1.057729e+01    2.657042e+00
  1.068842e+01    2.593163e+00
  1.079955e+01    2.523304e+00
  1.091068e+01    2.572572e+00
  1.102180e+01    2.502448e+00
  1.113293e+01    2.512728e+00
  1.124406e+01    2.519416e+00
  1.135519e+01    2.456088e+00
  1.146632e+01    2.393862e+00
  1.157745e+01    2.372668e+00
  1.168858e+01    2.354192e+00
  1.179971e+01    2.334599e+00
  1.191084e+01    2.364244e+00
  1.202197e+01    2.332051e+00
  1.213309e+01    2.333405e+00
  1.224422e+01    2.327113e+00
  1.235535e+01    2.306361e+00
  1.246648e+01    2.373536e+00
  1.257761e+01    2.362107e+00
  1.268874e+01    2.499096e+00
  1.279987e+01    2.727691e+00
  1.291100e+01    3.329520e+00
  1.302213e+01    5.912858e+00
  1.313326e+01    1.495160e+01
  1.324438e+01    1.573562e+01
  1.335551e+01    5.282468e+00
  1.346664e+01    3.098068e+00
  1.357777e+01    2.578423e+00
  1.368890e+01    2.308456e+00
  1.380003e+01    2.211675e+00
  1.391116e+01    2.165190e+00
  1.402229e+01    2.105092e+00
  1.413342e+01    2.029101e+00
  1.424455e+01    2.010967e+00
  1.435568e+01    1.971938e+00
  1.446680e+01    1.993526e+00
  1.457793e+01    1.912167e+00
  1.468906e+01    1.937740e+00
  1.480019e+01    1.921785e+00
  1.491132e+01    1.983122e+00
  1.502245e+01    2.195916e+00
  1.513358e+01    3.219258e+00
  1.524471e+01    5.972055e+00
  1.535584e+01    4.844736e+00
  1.546697e+01    2.427360e+00
  1.557809e+01    1.935498e+00
  1.568922e+01    1.769601e+00
  1.580035e+01    1.707032e+00
  1.591148e+01    1.643622e+00
  1.602261e+01    1.622588e+00
  1.613374e+01    1.604635e+00
  1.624487e+01    1.588894e+00
  1.635600e+01    1.599520e+00
  1.646713e+01    1.554182e+00
  1.657826e+01    1.529206e+00
  1.668938e+01    1.498609e+00
  1.680051e+01    1.471449e+00
  1.691164e+01    1.451006e+00
  1.702277e+01    1.455348e+00
  1.713390e+01    1.427212e+00
  1.724503e+01    1.437843e+00
  1.735616e+01    1.388519e+00
  1.746729e+01    1.381699e+00
  1.757842e+01    1.354887e+00
  1.768955e+01    1.378766e+00
  1.780067e+01    1.329202e+00
  1.791180e+01    1.308041e+00
  1.802293e+01    1.312012e+00
  1.813406e+01    1.307209e+00
  1.824519e+01    1.242541e+00
  1.835632e+01    1.274464e+00
  1.846745e+01    1.288374e+00
  1.857858e+01    1.238779e+00
  1.868971e+01    1.217351e+00
  1.880084e+01    1.246531e+00
  1.891196e+01    1.223652e+00
  1.902309e+01    1.190389e+00
  1.913422e+01    1.215099e+00
  1.924535e+01    1.192442e+00
  1.935648e+01    1.177616e+00
  1.946761e+01    1.155525e+00
  1.957874e+01    1.169482e+00
  1.968987e+01    1.128639e+00
  1.980100e+01    1.154732e+00
  1.991213e+01    1.155483e+00
  2.002325e+01    1.115240e+00
  2.013438e+01    1.134665e+00
  2.024551e+01    1.108108e+00
  2.035664e+01    1.108912e+00
  2.046777e+01    1.113516e+00
  2.057890e+01    1.114189e+00
  2.069003e+01    1.092654e+00
  2.080116e+01    1.081592e+00
  2.091229e+01    1.100632e+00
  2.102342e+01    1.108698e+00
  2.113455e+01    1.113701e+00
  2.124567e+01    1.079043e+00
  2.135680e+01    1.173898e+00
  2.146793e+01    1.246990e+00
  2.157906e+01    1.445201e+00
  2.169019e+01    2.150203e+00
  2.180132e+01    4.920129e+00
  2.191245e+01    1.044077e+01
  2.202358e+01    5.782425e+00
  2.213471e+01    2.266528e+00
  2.224584e+01    1.452736e+00
  2.235696e+01    1.205725e+00
  2.246809e+01    1.071487e+00
  2.257922e+01    1.010939e+00
  2.269035e+01    9.637883e-01
  2.280148e+01    9.544184e-01
  2.291261e+01    9.308506e-01
  2.302374e+01    9.247056e-01
  2.313487e+01    9.088998e-01
  2.324600e+01    8.933506e-01
  2.335713e+01    8.804634e-01
  2.346825e+01    8.638857e-01
  2.357938e+01    8.619154e-01
  2.369051e+01    8.443071e-01
  2.380164e+01    8.395520e-01
  2.391277e+01    8.046670e-01
  2.402390e+01    8.023757e-01
  2.413503e+01    8.108472e-01
  2.424616e+01    7.931352e-01
  2.435729e+01    8.182412e-01
  2.446842e+01    8.104137e-01
  2.457954e+01    8.030841e-01
  2.469067e+01    8.117445e-01
  2.480180e+01    7.966952e-01
  2.491293e+01    7.956461e-01
  2.502406e+01    8.155178e-01
  2.513519e+01    8.347581e-01
  2.524632e+01    8.485225e-01
  2.535745e+01    8.678579e-01
  2.546858e+01    9.436752e-01
  2.557971e+01    1.065828e+00
  2.569083e+01    1.319443e+00
  2.580196e+01    2.226631e+00
  2.591309e+01    5.692322e+00
  2.602422e+01    8.660051e+00
  2.613535e+01    3.375968e+00
  2.624648e+01    1.637994e+00
  2.635761e+01    1.167496e+00
  2.646874e+01    1.030465e+00
  2.657987e+01    9.429327e-01
  2.669100e+01    9.178291e-01
  2.680212e+01    9.117109e-01
  2.691325e+01    9.314395e-01
  2.702438e+01    1.048089e+00
  2.713551e+01    1.489897e+00
  2.724664e+01    2.491868e+00
  2.735777e+01    1.722144e+00
  2.746890e+01    1.091360e+00
  2.758003e+01    9.141254e-01
  2.769116e+01    8.373479e-01
  2.780229e+01    8.092161e-01
  2.791342e+01    8.106456e-01
  2.802454e+01    8.001124e-01
  2.813567e+01    7.990440e-01
  2.824680e+01    7.871827e-01
  2.835793e+01    7.728159e-01
  2.846906e+01    7.778103e-01
  2.858019e+01    7.503838e-01
  2.869132e+01    7.761033e-01
  2.880245e+01    7.418553e-01
  2.891358e+01    7.576399e-01
  2.902471e+01    7.443439e-01
  2.913583e+01    7.705734e-01
  2.924696e+01    7.451808e-01
  2.935809e+01    7.294576e-01
  2.946922e+01    7.349370e-01
  2.958035e+01    7.392467e-01
  2.969148e+01    7.204912e-01
  2.980261e+01    7.138290e-01
  2.991374e+01    7.244545e-01
  3.002487e+01    7.304012e-01
  3.013600e+01    7.356574e-01
  3.024712e+01    7.141450e-01
  3.035825e+01    7.110605e-01
  3.046938e+01    7.001125e-01
  3.058051e+01    7.070377e-01
  3.069164e+01    7.246996e-01
  3.080277e+01    7.304209e-01
  3.091390e+01    7.302193e-01
  3.102503e+01    7.163786e-01
  3.113616e+01    7.195820e-01
  3.124729e+01    7.342709e-01
  3.135841e+01    7.578331e-01
  3.146954e+01    7.749757e-01
  3.158067e+01    7.824819e-01
  3.169180e+01    8.909664e-01
  3.180293e+01    1.213760e+00
  3.191406e+01    2.252328e+00
  3.202519e+01    2.056244e+00
  3.213632e+01    1.098952e+00
  3.224745e+01    8.355159e-01
  3.235858e+01    8.015857e-01
  3.246970e+01    7.272224e-01
  3.254908e+01    7.346754e-01