File: XRD/2024-07-27_002_Ru-CGO-ex_Activtation_ramp_000002_data_000009.dat
# == pyFAI calibration ==
# Distance Sample to Detector: 0.4 m
# PONI: 9.750e-02, 1.135e-01 m
# Rotations: -0.000175 0.000000 -0.000000 rad
#
# == Fit2d calibration ==
# Distance Sample-beamCenter: 400.000 mm
# Center: x=1514.000, y=1300.000 pix
# Tilt: 0.010 deg  TiltPlanRot: 0.010 deg
#
# Detector Detector	 Spline= None	 PixelSize= 7.500e-05, 7.500e-05 m
#    Detector has a mask: False
#    Detector has a dark current: False
#    detector has a flat field: False
#
# Wavelength: 6.888e-11 m
# Mask applied: user provided
# Dark current applied: False
# Flat field applied: False
# Polarization factor: 0.99
# Normalization factor: 1.0
# --> /home/myspot/data/2024_07_Rosario/Ru-CGO-ex/2024-07-27_002_Ru-CGO-ex_Activtation_ramp_000002_data_000009.dat
#       q_nm^-1             I
  2.003187e-02    9.938969e-02
  1.311609e-01    1.852852e-02
  2.422899e-01    3.653629e-02
  3.534189e-01    4.345289e-02
  4.645479e-01    3.406818e-02
  5.756770e-01    7.438821e-02
  6.868060e-01    4.640022e-02
  7.979350e-01    1.202643e-01
  9.090640e-01    5.640698e-01
  1.020193e+00    1.147975e+00
  1.131322e+00    1.432091e+00
  1.242451e+00    2.382625e+00
  1.353580e+00    2.523005e+00
  1.464709e+00    2.920697e+00
  1.575838e+00    3.037354e+00
  1.686967e+00    2.878611e+00
  1.798096e+00    3.009382e+00
  1.909225e+00    2.862294e+00
  2.020354e+00    2.803889e+00
  2.131483e+00    2.841407e+00
  2.242612e+00    2.788675e+00
  2.353741e+00    2.832756e+00
  2.464870e+00    2.812533e+00
  2.575999e+00    2.801981e+00
  2.687128e+00    2.895073e+00
  2.798257e+00    2.839308e+00
  2.909386e+00    2.822101e+00
  3.020515e+00    2.899388e+00
  3.131644e+00    2.903673e+00
  3.242773e+00    3.008576e+00
  3.353902e+00    2.972946e+00
  3.465031e+00    2.944487e+00
  3.576160e+00    3.000736e+00
  3.687289e+00    2.945684e+00
  3.798418e+00    2.999292e+00
  3.909547e+00    3.067500e+00
  4.020676e+00    3.023626e+00
  4.131806e+00    2.972317e+00
  4.242935e+00    3.061166e+00
  4.354064e+00    3.075164e+00
  4.465193e+00    3.044458e+00
  4.576322e+00    3.149894e+00
  4.687451e+00    3.078616e+00
  4.798580e+00    3.188687e+00
  4.909709e+00    3.060827e+00
  5.020838e+00    3.135510e+00
  5.131967e+00    3.106971e+00
  5.243096e+00    3.095227e+00
  5.354225e+00    3.163197e+00
  5.465354e+00    3.166914e+00
  5.576483e+00    3.126979e+00
  5.687612e+00    3.008686e+00
  5.798741e+00    2.993372e+00
  5.909870e+00    3.038888e+00
  6.020999e+00    3.059454e+00
  6.132128e+00    3.106616e+00
  6.243257e+00    3.110203e+00
  6.354386e+00    3.051627e+00
  6.465515e+00    3.077706e+00
  6.576644e+00    3.038486e+00
  6.687773e+00    3.011659e+00
  6.798902e+00    3.051347e+00
  6.910031e+00    3.039865e+00
  7.021160e+00    3.041250e+00
  7.132289e+00    3.079969e+00
  7.243418e+00    3.038973e+00
  7.354547e+00    3.024728e+00
  7.465676e+00    3.049601e+00
  7.576805e+00    2.929581e+00
  7.687934e+00    2.972506e+00
  7.799063e+00    2.940627e+00
  7.910192e+00    2.918712e+00
  8.021321e+00    2.982077e+00
  8.132450e+00    2.997770e+00
  8.243579e+00    3.003062e+00
  8.354708e+00    2.960747e+00
  8.465837e+00    2.937052e+00
  8.576966e+00    2.862432e+00
  8.688095e+00    2.886358e+00
  8.799224e+00    2.839212e+00
  8.910353e+00    2.866717e+00
  9.021482e+00    2.826221e+00
  9.132611e+00    2.853441e+00
  9.243740e+00    2.821831e+00
  9.354869e+00    2.782572e+00
  9.465998e+00    2.788274e+00
  9.577127e+00    2.793672e+00
  9.688256e+00    2.812184e+00
  9.799385e+00    2.674213e+00
  9.910514e+00    2.714888e+00
  1.002164e+01    2.698433e+00
  1.013277e+01    2.698624e+00
  1.024390e+01    2.667073e+00
  1.035503e+01    2.653473e+00
  1.046616e+01    2.586842e+00
  1.057729e+01    2.589102e+00
  1.068842e+01    2.534078e+00
  1.079955e+01    2.561983e+00
  1.091068e+01    2.543346e+00
  1.102180e+01    2.496208e+00
  1.113293e+01    2.492609e+00
  1.124406e+01    2.475508e+00
  1.135519e+01    2.478946e+00
  1.146632e+01    2.462824e+00
  1.157745e+01    2.410028e+00
  1.168858e+01    2.375122e+00
  1.179971e+01    2.373588e+00
  1.191084e+01    2.363229e+00
  1.202197e+01    2.321520e+00
  1.213309e+01    2.351762e+00
  1.224422e+01    2.341883e+00
  1.235535e+01    2.306118e+00
  1.246648e+01    2.364761e+00
  1.257761e+01    2.390667e+00
  1.268874e+01    2.542187e+00
  1.279987e+01    2.691272e+00
  1.291100e+01    3.286361e+00
  1.302213e+01    5.750333e+00
  1.313326e+01    1.492217e+01
  1.324438e+01    1.664805e+01
  1.335551e+01    5.549069e+00
  1.346664e+01    3.209714e+00
  1.357777e+01    2.622650e+00
  1.368890e+01    2.330251e+00
  1.380003e+01    2.259229e+00
  1.391116e+01    2.138302e+00
  1.402229e+01    2.101574e+00
  1.413342e+01    2.006431e+00
  1.424455e+01    2.010191e+00
  1.435568e+01    2.000169e+00
  1.446680e+01    1.953908e+00
  1.457793e+01    1.936140e+00
  1.468906e+01    1.973658e+00
  1.480019e+01    1.923864e+00
  1.491132e+01    1.967725e+00
  1.502245e+01    2.202239e+00
  1.513358e+01    3.253508e+00
  1.524471e+01    5.927425e+00
  1.535584e+01    5.127757e+00
  1.546697e+01    2.550337e+00
  1.557809e+01    1.978963e+00
  1.568922e+01    1.775033e+00
  1.580035e+01    1.731096e+00
  1.591148e+01    1.699551e+00
  1.602261e+01    1.628525e+00
  1.613374e+01    1.584900e+00
  1.624487e+01    1.562714e+00
  1.635600e+01    1.561239e+00
  1.646713e+01    1.543878e+00
  1.657826e+01    1.530543e+00
  1.668938e+01    1.505248e+00
  1.680051e+01    1.494616e+00
  1.691164e+01    1.476895e+00
  1.702277e+01    1.445899e+00
  1.713390e+01    1.413151e+00
  1.724503e+01    1.393889e+00
  1.735616e+01    1.392805e+00
  1.746729e+01    1.354019e+00
  1.757842e+01    1.352772e+00
  1.768955e+01    1.355074e+00
  1.780067e+01    1.353912e+00
  1.791180e+01    1.333498e+00
  1.802293e+01    1.315454e+00
  1.813406e+01    1.316185e+00
  1.824519e+01    1.302985e+00
  1.835632e+01    1.289404e+00
  1.846745e+01    1.279827e+00
  1.857858e+01    1.264796e+00
  1.868971e+01    1.214031e+00
  1.880084e+01    1.265499e+00
  1.891196e+01    1.248930e+00
  1.902309e+01    1.220216e+00
  1.913422e+01    1.214295e+00
  1.924535e+01    1.193211e+00
  1.935648e+01    1.171282e+00
  1.946761e+01    1.192730e+00
  1.957874e+01    1.177795e+00
  1.968987e+01    1.147288e+00
  1.980100e+01    1.167883e+00
  1.991213e+01    1.158206e+00
  2.002325e+01    1.135076e+00
  2.013438e+01    1.109957e+00
  2.024551e+01    1.112623e+00
  2.035664e+01    1.135202e+00
  2.046777e+01    1.103935e+00
  2.057890e+01    1.108710e+00
  2.069003e+01    1.088214e+00
  2.080116e+01    1.080070e+00
  2.091229e+01    1.124749e+00
  2.102342e+01    1.087175e+00
  2.113455e+01    1.104653e+00
  2.124567e+01    1.134654e+00
  2.135680e+01    1.133918e+00
  2.146793e+01    1.250803e+00
  2.157906e+01    1.416829e+00
  2.169019e+01    2.065528e+00
  2.180132e+01    4.697321e+00
  2.191245e+01    1.052283e+01
  2.202358e+01    6.433139e+00
  2.213471e+01    2.414431e+00
  2.224584e+01    1.491257e+00
  2.235696e+01    1.213835e+00
  2.246809e+01    1.073061e+00
  2.257922e+01    1.061543e+00
  2.269035e+01    9.831566e-01
  2.280148e+01    9.525821e-01
  2.291261e+01    9.563697e-01
  2.302374e+01    9.199806e-01
  2.313487e+01    9.035953e-01
  2.324600e+01    8.781980e-01
  2.335713e+01    8.819309e-01
  2.346825e+01    8.710789e-01
  2.357938e+01    8.494829e-01
  2.369051e+01    8.244894e-01
  2.380164e+01    8.201573e-01
  2.391277e+01    8.237978e-01
  2.402390e+01    8.133980e-01
  2.413503e+01    7.868603e-01
  2.424616e+01    7.910468e-01
  2.435729e+01    7.950410e-01
  2.446842e+01    8.099243e-01
  2.457954e+01    8.294291e-01
  2.469067e+01    8.037410e-01
  2.480180e+01    8.137944e-01
  2.491293e+01    7.991228e-01
  2.502406e+01    8.066270e-01
  2.513519e+01    8.376759e-01
  2.524632e+01    8.569730e-01
  2.535745e+01    8.746655e-01
  2.546858e+01    9.562206e-01
  2.557971e+01    1.061419e+00
  2.569083e+01    1.316746e+00
  2.580196e+01    2.145410e+00
  2.591309e+01    5.377524e+00
  2.602422e+01    9.135387e+00
  2.613535e+01    3.805362e+00
  2.624648e+01    1.736908e+00
  2.635761e+01    1.192865e+00
  2.646874e+01    1.044893e+00
  2.657987e+01    9.445097e-01
  2.669100e+01    9.312328e-01
  2.680212e+01    9.053577e-01
  2.691325e+01    9.405698e-01
  2.702438e+01    1.022932e+00
  2.713551e+01    1.384693e+00
  2.724664e+01    2.497693e+00
  2.735777e+01    1.854120e+00
  2.746890e+01    1.114479e+00
  2.758003e+01    9.111930e-01
  2.769116e+01    8.678834e-01
  2.780229e+01    8.398724e-01
  2.791342e+01    7.956800e-01
  2.802454e+01    8.033240e-01
  2.813567e+01    8.024741e-01
  2.824680e+01    7.989337e-01
  2.835793e+01    7.975444e-01
  2.846906e+01    7.898534e-01
  2.858019e+01    7.666074e-01
  2.869132e+01    7.766123e-01
  2.880245e+01    7.495357e-01
  2.891358e+01    7.844676e-01
  2.902471e+01    7.598025e-01
  2.913583e+01    7.479858e-01
  2.924696e+01    7.456340e-01
  2.935809e+01    7.185007e-01
  2.946922e+01    7.461175e-01
  2.958035e+01    7.160208e-01
  2.969148e+01    7.285405e-01
  2.980261e+01    7.240449e-01
  2.991374e+01    7.347254e-01
  3.002487e+01    7.496591e-01
  3.013600e+01    7.645346e-01
  3.024712e+01    7.165009e-01
  3.035825e+01    7.134489e-01
  3.046938e+01    7.334660e-01
  3.058051e+01    7.267683e-01
  3.069164e+01    7.296360e-01
  3.080277e+01    7.263511e-01
  3.091390e+01    7.270080e-01
  3.102503e+01    7.165800e-01
  3.113616e+01    7.224842e-01
  3.124729e+01    7.412836e-01
  3.135841e+01    7.527238e-01
  3.146954e+01    7.766016e-01
  3.158067e+01    8.073592e-01
  3.169180e+01    8.903360e-01
  3.180293e+01    1.186474e+00
  3.191406e+01    2.201003e+00
  3.202519e+01    2.211718e+00
  3.213632e+01    1.184237e+00
  3.224745e+01    8.667298e-01
  3.235858e+01    7.979656e-01
  3.246970e+01    7.685058e-01
  3.254908e+01    7.534568e-01