File: XRD/2024-07-27_002_Ru-CGO-ex_Activtation_ramp_000002_data_000047.dat
# == pyFAI calibration ==
# Distance Sample to Detector: 0.4 m
# PONI: 9.750e-02, 1.135e-01 m
# Rotations: -0.000175 0.000000 -0.000000 rad
#
# == Fit2d calibration ==
# Distance Sample-beamCenter: 400.000 mm
# Center: x=1514.000, y=1300.000 pix
# Tilt: 0.010 deg  TiltPlanRot: 0.010 deg
#
# Detector Detector	 Spline= None	 PixelSize= 7.500e-05, 7.500e-05 m
#    Detector has a mask: False
#    Detector has a dark current: False
#    detector has a flat field: False
#
# Wavelength: 6.888e-11 m
# Mask applied: user provided
# Dark current applied: False
# Flat field applied: False
# Polarization factor: 0.99
# Normalization factor: 1.0
# --> /home/myspot/data/2024_07_Rosario/Ru-CGO-ex/2024-07-27_002_Ru-CGO-ex_Activtation_ramp_000002_data_000047.dat
#       q_nm^-1             I
  2.003187e-02    0.000000e+00
  1.311609e-01    1.374742e-01
  2.422899e-01    3.856357e-02
  3.534189e-01    2.364720e-02
  4.645479e-01    2.270444e-02
  5.756770e-01    2.811807e-02
  6.868060e-01    4.773832e-02
  7.979350e-01    1.661519e-01
  9.090640e-01    6.115608e-01
  1.020193e+00    1.151970e+00
  1.131322e+00    1.512403e+00
  1.242451e+00    2.286102e+00
  1.353580e+00    2.609982e+00
  1.464709e+00    2.804171e+00
  1.575838e+00    2.978988e+00
  1.686967e+00    2.900218e+00
  1.798096e+00    2.922446e+00
  1.909225e+00    2.775819e+00
  2.020354e+00    2.809535e+00
  2.131483e+00    2.768831e+00
  2.242612e+00    2.823343e+00
  2.353741e+00    2.831371e+00
  2.464870e+00    2.841595e+00
  2.575999e+00    3.006029e+00
  2.687128e+00    2.884403e+00
  2.798257e+00    2.888588e+00
  2.909386e+00    2.894214e+00
  3.020515e+00    2.891143e+00
  3.131644e+00    2.947151e+00
  3.242773e+00    2.905282e+00
  3.353902e+00    2.933175e+00
  3.465031e+00    2.987849e+00
  3.576160e+00    3.125217e+00
  3.687289e+00    2.991960e+00
  3.798418e+00    3.023263e+00
  3.909547e+00    2.923530e+00
  4.020676e+00    2.920207e+00
  4.131806e+00    3.027642e+00
  4.242935e+00    3.053390e+00
  4.354064e+00    3.065125e+00
  4.465193e+00    3.018213e+00
  4.576322e+00    3.034781e+00
  4.687451e+00    3.087459e+00
  4.798580e+00    3.086749e+00
  4.909709e+00    3.152218e+00
  5.020838e+00    3.095181e+00
  5.131967e+00    3.191706e+00
  5.243096e+00    3.117464e+00
  5.354225e+00    3.197384e+00
  5.465354e+00    3.097972e+00
  5.576483e+00    2.985208e+00
  5.687612e+00    3.114316e+00
  5.798741e+00    2.998341e+00
  5.909870e+00    3.042752e+00
  6.020999e+00    3.022249e+00
  6.132128e+00    3.059242e+00
  6.243257e+00    3.083013e+00
  6.354386e+00    3.009351e+00
  6.465515e+00    3.025948e+00
  6.576644e+00    2.974702e+00
  6.687773e+00    3.007105e+00
  6.798902e+00    3.097870e+00
  6.910031e+00    3.041004e+00
  7.021160e+00    3.071302e+00
  7.132289e+00    2.993319e+00
  7.243418e+00    3.016195e+00
  7.354547e+00    3.014524e+00
  7.465676e+00    2.972268e+00
  7.576805e+00    2.921541e+00
  7.687934e+00    2.980031e+00
  7.799063e+00    2.963703e+00
  7.910192e+00    2.908549e+00
  8.021321e+00    2.957836e+00
  8.132450e+00    2.987876e+00
  8.243579e+00    2.902312e+00
  8.354708e+00    2.961059e+00
  8.465837e+00    2.925259e+00
  8.576966e+00    2.889584e+00
  8.688095e+00    2.853732e+00
  8.799224e+00    2.875541e+00
  8.910353e+00    2.828338e+00
  9.021482e+00    2.878124e+00
  9.132611e+00    2.862166e+00
  9.243740e+00    2.794860e+00
  9.354869e+00    2.718974e+00
  9.465998e+00    2.742724e+00
  9.577127e+00    2.714032e+00
  9.688256e+00    2.745270e+00
  9.799385e+00    2.716238e+00
  9.910514e+00    2.673975e+00
  1.002164e+01    2.730844e+00
  1.013277e+01    2.622270e+00
  1.024390e+01    2.642186e+00
  1.035503e+01    2.565189e+00
  1.046616e+01    2.547197e+00
  1.057729e+01    2.566966e+00
  1.068842e+01    2.549393e+00
  1.079955e+01    2.522370e+00
  1.091068e+01    2.515530e+00
  1.102180e+01    2.543422e+00
  1.113293e+01    2.431447e+00
  1.124406e+01    2.467150e+00
  1.135519e+01    2.448052e+00
  1.146632e+01    2.486892e+00
  1.157745e+01    2.366127e+00
  1.168858e+01    2.380090e+00
  1.179971e+01    2.394474e+00
  1.191084e+01    2.317492e+00
  1.202197e+01    2.338758e+00
  1.213309e+01    2.399742e+00
  1.224422e+01    2.360586e+00
  1.235535e+01    2.280047e+00
  1.246648e+01    2.348454e+00
  1.257761e+01    2.405517e+00
  1.268874e+01    2.465145e+00
  1.279987e+01    2.661926e+00
  1.291100e+01    3.236081e+00
  1.302213e+01    5.950444e+00
  1.313326e+01    1.512476e+01
  1.324438e+01    1.514239e+01
  1.335551e+01    5.183712e+00
  1.346664e+01    3.058707e+00
  1.357777e+01    2.572874e+00
  1.368890e+01    2.267915e+00
  1.380003e+01    2.222894e+00
  1.391116e+01    2.128434e+00
  1.402229e+01    2.088242e+00
  1.413342e+01    2.004578e+00
  1.424455e+01    1.996822e+00
  1.435568e+01    1.956951e+00
  1.446680e+01    1.975660e+00
  1.457793e+01    1.971673e+00
  1.468906e+01    1.883419e+00
  1.480019e+01    1.906004e+00
  1.491132e+01    1.985700e+00
  1.502245e+01    2.181690e+00
  1.513358e+01    3.333543e+00
  1.524471e+01    5.942387e+00
  1.535584e+01    4.703541e+00
  1.546697e+01    2.428249e+00
  1.557809e+01    1.905986e+00
  1.568922e+01    1.772313e+00
  1.580035e+01    1.704854e+00
  1.591148e+01    1.666563e+00
  1.602261e+01    1.604854e+00
  1.613374e+01    1.612568e+00
  1.624487e+01    1.593672e+00
  1.635600e+01    1.529518e+00
  1.646713e+01    1.483245e+00
  1.657826e+01    1.501484e+00
  1.668938e+01    1.489233e+00
  1.680051e+01    1.497262e+00
  1.691164e+01    1.440098e+00
  1.702277e+01    1.448608e+00
  1.713390e+01    1.420651e+00
  1.724503e+01    1.379250e+00
  1.735616e+01    1.378314e+00
  1.746729e+01    1.330598e+00
  1.757842e+01    1.366492e+00
  1.768955e+01    1.351769e+00
  1.780067e+01    1.322541e+00
  1.791180e+01    1.343273e+00
  1.802293e+01    1.300573e+00
  1.813406e+01    1.293771e+00
  1.824519e+01    1.306235e+00
  1.835632e+01    1.258903e+00
  1.846745e+01    1.237399e+00
  1.857858e+01    1.255870e+00
  1.868971e+01    1.247048e+00
  1.880084e+01    1.243187e+00
  1.891196e+01    1.198432e+00
  1.902309e+01    1.190607e+00
  1.913422e+01    1.194123e+00
  1.924535e+01    1.202506e+00
  1.935648e+01    1.170720e+00
  1.946761e+01    1.164042e+00
  1.957874e+01    1.150435e+00
  1.968987e+01    1.129719e+00
  1.980100e+01    1.140008e+00
  1.991213e+01    1.130583e+00
  2.002325e+01    1.114317e+00
  2.013438e+01    1.111509e+00
  2.024551e+01    1.116881e+00
  2.035664e+01    1.098829e+00
  2.046777e+01    1.101390e+00
  2.057890e+01    1.092494e+00
  2.069003e+01    1.093875e+00
  2.080116e+01    1.092911e+00
  2.091229e+01    1.058496e+00
  2.102342e+01    1.082378e+00
  2.113455e+01    1.106196e+00
  2.124567e+01    1.123288e+00
  2.135680e+01    1.131803e+00
  2.146793e+01    1.240544e+00
  2.157906e+01    1.468544e+00
  2.169019e+01    2.208285e+00
  2.180132e+01    4.961360e+00
  2.191245e+01    1.040020e+01
  2.202358e+01    5.429799e+00
  2.213471e+01    2.205939e+00
  2.224584e+01    1.440604e+00
  2.235696e+01    1.195189e+00
  2.246809e+01    1.061542e+00
  2.257922e+01    1.005368e+00
  2.269035e+01    9.741129e-01
  2.280148e+01    9.315398e-01
  2.291261e+01    9.032821e-01
  2.302374e+01    9.239763e-01
  2.313487e+01    8.719543e-01
  2.324600e+01    8.756071e-01
  2.335713e+01    8.897589e-01
  2.346825e+01    8.483146e-01
  2.357938e+01    8.456581e-01
  2.369051e+01    8.199379e-01
  2.380164e+01    8.123803e-01
  2.391277e+01    7.923331e-01
  2.402390e+01    7.954500e-01
  2.413503e+01    7.954793e-01
  2.424616e+01    7.819819e-01
  2.435729e+01    7.901742e-01
  2.446842e+01    8.337043e-01
  2.457954e+01    8.229118e-01
  2.469067e+01    7.839321e-01
  2.480180e+01    7.910491e-01
  2.491293e+01    8.113652e-01
  2.502406e+01    8.038036e-01
  2.513519e+01    8.133255e-01
  2.524632e+01    8.635221e-01
  2.535745e+01    9.145580e-01
  2.546858e+01    9.671077e-01
  2.557971e+01    1.054739e+00
  2.569083e+01    1.347229e+00
  2.580196e+01    2.275797e+00
  2.591309e+01    5.816042e+00
  2.602422e+01    8.396234e+00
  2.613535e+01    3.180048e+00
  2.624648e+01    1.567323e+00
  2.635761e+01    1.136997e+00
  2.646874e+01    9.996857e-01
  2.657987e+01    9.446106e-01
  2.669100e+01    9.261651e-01
  2.680212e+01    8.963033e-01
  2.691325e+01    9.603581e-01
  2.702438e+01    1.053516e+00
  2.713551e+01    1.490803e+00
  2.724664e+01    2.497456e+00
  2.735777e+01    1.657461e+00
  2.746890e+01    1.067600e+00
  2.758003e+01    9.309422e-01
  2.769116e+01    8.435239e-01
  2.780229e+01    8.386756e-01
  2.791342e+01    8.119580e-01
  2.802454e+01    8.070948e-01
  2.813567e+01    7.785223e-01
  2.824680e+01    8.086151e-01
  2.835793e+01    8.050397e-01
  2.846906e+01    7.831095e-01
  2.858019e+01    7.538398e-01
  2.869132e+01    7.500760e-01
  2.880245e+01    7.723463e-01
  2.891358e+01    7.363725e-01
  2.902471e+01    7.640500e-01
  2.913583e+01    7.351659e-01
  2.924696e+01    7.316524e-01
  2.935809e+01    7.560488e-01
  2.946922e+01    7.255336e-01
  2.958035e+01    7.120905e-01
  2.969148e+01    7.210190e-01
  2.980261e+01    7.404871e-01
  2.991374e+01    7.250238e-01
  3.002487e+01    7.655231e-01
  3.013600e+01    7.398036e-01
  3.024712e+01    7.341852e-01
  3.035825e+01    7.382962e-01
  3.046938e+01    7.206426e-01
  3.058051e+01    7.340244e-01
  3.069164e+01    7.102811e-01
  3.080277e+01    7.100129e-01
  3.091390e+01    7.179599e-01
  3.102503e+01    7.326533e-01
  3.113616e+01    7.238370e-01
  3.124729e+01    7.336575e-01
  3.135841e+01    7.475466e-01
  3.146954e+01    7.807240e-01
  3.158067e+01    7.886150e-01
  3.169180e+01    9.015955e-01
  3.180293e+01    1.244821e+00
  3.191406e+01    2.317846e+00
  3.202519e+01    1.952005e+00
  3.213632e+01    1.058656e+00
  3.224745e+01    8.398436e-01
  3.235858e+01    7.624294e-01
  3.246970e+01    7.494482e-01
  3.254908e+01    7.415301e-01