File: XRD/2024-07-27_002_Ru-CGO-ex_Activtation_ramp_000002_data_000030.dat
# == pyFAI calibration ==
# Distance Sample to Detector: 0.4 m
# PONI: 9.750e-02, 1.135e-01 m
# Rotations: -0.000175 0.000000 -0.000000 rad
#
# == Fit2d calibration ==
# Distance Sample-beamCenter: 400.000 mm
# Center: x=1514.000, y=1300.000 pix
# Tilt: 0.010 deg  TiltPlanRot: 0.010 deg
#
# Detector Detector	 Spline= None	 PixelSize= 7.500e-05, 7.500e-05 m
#    Detector has a mask: False
#    Detector has a dark current: False
#    detector has a flat field: False
#
# Wavelength: 6.888e-11 m
# Mask applied: user provided
# Dark current applied: False
# Flat field applied: False
# Polarization factor: 0.99
# Normalization factor: 1.0
# --> /home/myspot/data/2024_07_Rosario/Ru-CGO-ex/2024-07-27_002_Ru-CGO-ex_Activtation_ramp_000002_data_000030.dat
#       q_nm^-1             I
  2.003187e-02    0.000000e+00
  1.311609e-01    3.384869e-02
  2.422899e-01    8.303907e-02
  3.534189e-01    8.242383e-03
  4.645479e-01    4.338651e-02
  5.756770e-01    4.255582e-02
  6.868060e-01    3.149852e-02
  7.979350e-01    1.679270e-01
  9.090640e-01    5.916972e-01
  1.020193e+00    1.117582e+00
  1.131322e+00    1.519692e+00
  1.242451e+00    2.141675e+00
  1.353580e+00    2.827387e+00
  1.464709e+00    2.810688e+00
  1.575838e+00    3.033230e+00
  1.686967e+00    2.894546e+00
  1.798096e+00    2.832668e+00
  1.909225e+00    2.858671e+00
  2.020354e+00    2.838289e+00
  2.131483e+00    2.706097e+00
  2.242612e+00    2.624358e+00
  2.353741e+00    2.692883e+00
  2.464870e+00    2.868997e+00
  2.575999e+00    2.843541e+00
  2.687128e+00    2.860538e+00
  2.798257e+00    2.876518e+00
  2.909386e+00    2.898323e+00
  3.020515e+00    2.854226e+00
  3.131644e+00    2.936545e+00
  3.242773e+00    2.920576e+00
  3.353902e+00    2.952394e+00
  3.465031e+00    3.007945e+00
  3.576160e+00    2.938335e+00
  3.687289e+00    2.966152e+00
  3.798418e+00    2.972780e+00
  3.909547e+00    3.042418e+00
  4.020676e+00    2.993062e+00
  4.131806e+00    3.016318e+00
  4.242935e+00    3.034509e+00
  4.354064e+00    3.093728e+00
  4.465193e+00    2.977739e+00
  4.576322e+00    3.088671e+00
  4.687451e+00    3.179915e+00
  4.798580e+00    3.071132e+00
  4.909709e+00    3.112680e+00
  5.020838e+00    3.111679e+00
  5.131967e+00    3.088069e+00
  5.243096e+00    3.103134e+00
  5.354225e+00    3.152485e+00
  5.465354e+00    3.133070e+00
  5.576483e+00    3.069793e+00
  5.687612e+00    3.086373e+00
  5.798741e+00    3.060526e+00
  5.909870e+00    2.952706e+00
  6.020999e+00    2.973007e+00
  6.132128e+00    3.096228e+00
  6.243257e+00    2.983990e+00
  6.354386e+00    3.053512e+00
  6.465515e+00    3.012640e+00
  6.576644e+00    2.986497e+00
  6.687773e+00    3.015473e+00
  6.798902e+00    3.071637e+00
  6.910031e+00    2.966045e+00
  7.021160e+00    2.958167e+00
  7.132289e+00    2.994661e+00
  7.243418e+00    3.042048e+00
  7.354547e+00    2.947898e+00
  7.465676e+00    2.958031e+00
  7.576805e+00    2.934935e+00
  7.687934e+00    2.909648e+00
  7.799063e+00    3.004067e+00
  7.910192e+00    2.910091e+00
  8.021321e+00    2.967187e+00
  8.132450e+00    2.988487e+00
  8.243579e+00    2.923028e+00
  8.354708e+00    2.888269e+00
  8.465837e+00    2.846300e+00
  8.576966e+00    2.890158e+00
  8.688095e+00    2.883087e+00
  8.799224e+00    2.923715e+00
  8.910353e+00    2.818601e+00
  9.021482e+00    2.814801e+00
  9.132611e+00    2.872568e+00
  9.243740e+00    2.754947e+00
  9.354869e+00    2.790900e+00
  9.465998e+00    2.797413e+00
  9.577127e+00    2.751230e+00
  9.688256e+00    2.761459e+00
  9.799385e+00    2.719014e+00
  9.910514e+00    2.741295e+00
  1.002164e+01    2.690569e+00
  1.013277e+01    2.677655e+00
  1.024390e+01    2.652901e+00
  1.035503e+01    2.604688e+00
  1.046616e+01    2.615418e+00
  1.057729e+01    2.530461e+00
  1.068842e+01    2.580663e+00
  1.079955e+01    2.557509e+00
  1.091068e+01    2.562130e+00
  1.102180e+01    2.536942e+00
  1.113293e+01    2.465827e+00
  1.124406e+01    2.452130e+00
  1.135519e+01    2.439572e+00
  1.146632e+01    2.434011e+00
  1.157745e+01    2.438631e+00
  1.168858e+01    2.391528e+00
  1.179971e+01    2.379603e+00
  1.191084e+01    2.424559e+00
  1.202197e+01    2.341708e+00
  1.213309e+01    2.355118e+00
  1.224422e+01    2.339447e+00
  1.235535e+01    2.385901e+00
  1.246648e+01    2.390150e+00
  1.257761e+01    2.402535e+00
  1.268874e+01    2.474822e+00
  1.279987e+01    2.698147e+00
  1.291100e+01    3.296368e+00
  1.302213e+01    5.770138e+00
  1.313326e+01    1.502313e+01
  1.324438e+01    1.606625e+01
  1.335551e+01    5.377744e+00
  1.346664e+01    3.213354e+00
  1.357777e+01    2.562665e+00
  1.368890e+01    2.302559e+00
  1.380003e+01    2.231736e+00
  1.391116e+01    2.105061e+00
  1.402229e+01    2.058697e+00
  1.413342e+01    2.060068e+00
  1.424455e+01    2.001399e+00
  1.435568e+01    1.949908e+00
  1.446680e+01    1.947275e+00
  1.457793e+01    1.907385e+00
  1.468906e+01    1.924831e+00
  1.480019e+01    1.921555e+00
  1.491132e+01    2.005832e+00
  1.502245e+01    2.205065e+00
  1.513358e+01    3.232113e+00
  1.524471e+01    5.971867e+00
  1.535584e+01    5.020797e+00
  1.546697e+01    2.480565e+00
  1.557809e+01    1.953170e+00
  1.568922e+01    1.784458e+00
  1.580035e+01    1.717863e+00
  1.591148e+01    1.670292e+00
  1.602261e+01    1.608620e+00
  1.613374e+01    1.607070e+00
  1.624487e+01    1.553322e+00
  1.635600e+01    1.542092e+00
  1.646713e+01    1.540865e+00
  1.657826e+01    1.507442e+00
  1.668938e+01    1.524932e+00
  1.680051e+01    1.486320e+00
  1.691164e+01    1.468670e+00
  1.702277e+01    1.444112e+00
  1.713390e+01    1.428431e+00
  1.724503e+01    1.379378e+00
  1.735616e+01    1.375544e+00
  1.746729e+01    1.377013e+00
  1.757842e+01    1.366181e+00
  1.768955e+01    1.352505e+00
  1.780067e+01    1.340639e+00
  1.791180e+01    1.340241e+00
  1.802293e+01    1.276472e+00
  1.813406e+01    1.296391e+00
  1.824519e+01    1.265425e+00
  1.835632e+01    1.261019e+00
  1.846745e+01    1.261500e+00
  1.857858e+01    1.241984e+00
  1.868971e+01    1.233050e+00
  1.880084e+01    1.209614e+00
  1.891196e+01    1.258991e+00
  1.902309e+01    1.208833e+00
  1.913422e+01    1.190146e+00
  1.924535e+01    1.204878e+00
  1.935648e+01    1.178891e+00
  1.946761e+01    1.177938e+00
  1.957874e+01    1.175666e+00
  1.968987e+01    1.147061e+00
  1.980100e+01    1.161683e+00
  1.991213e+01    1.159324e+00
  2.002325e+01    1.163489e+00
  2.013438e+01    1.108280e+00
  2.024551e+01    1.114147e+00
  2.035664e+01    1.123008e+00
  2.046777e+01    1.100695e+00
  2.057890e+01    1.114932e+00
  2.069003e+01    1.104675e+00
  2.080116e+01    1.084679e+00
  2.091229e+01    1.087692e+00
  2.102342e+01    1.066675e+00
  2.113455e+01    1.087193e+00
  2.124567e+01    1.136794e+00
  2.135680e+01    1.139755e+00
  2.146793e+01    1.241209e+00
  2.157906e+01    1.454165e+00
  2.169019e+01    2.112756e+00
  2.180132e+01    4.899953e+00
  2.191245e+01    1.053038e+01
  2.202358e+01    5.965610e+00
  2.213471e+01    2.319277e+00
  2.224584e+01    1.462941e+00
  2.235696e+01    1.235093e+00
  2.246809e+01    1.088242e+00
  2.257922e+01    1.038440e+00
  2.269035e+01    9.987220e-01
  2.280148e+01    9.691349e-01
  2.291261e+01    9.194250e-01
  2.302374e+01    9.112151e-01
  2.313487e+01    9.017683e-01
  2.324600e+01    8.997006e-01
  2.335713e+01    9.000210e-01
  2.346825e+01    8.583112e-01
  2.357938e+01    8.720364e-01
  2.369051e+01    8.331120e-01
  2.380164e+01    8.210018e-01
  2.391277e+01    8.224797e-01
  2.402390e+01    8.145720e-01
  2.413503e+01    8.071090e-01
  2.424616e+01    7.894142e-01
  2.435729e+01    8.014485e-01
  2.446842e+01    8.037110e-01
  2.457954e+01    7.967706e-01
  2.469067e+01    8.078473e-01
  2.480180e+01    8.051682e-01
  2.491293e+01    7.965277e-01
  2.502406e+01    8.112890e-01
  2.513519e+01    8.110609e-01
  2.524632e+01    8.711795e-01
  2.535745e+01    9.013320e-01
  2.546858e+01    9.491869e-01
  2.557971e+01    1.047199e+00
  2.569083e+01    1.335921e+00
  2.580196e+01    2.225533e+00
  2.591309e+01    5.547419e+00
  2.602422e+01    8.809968e+00
  2.613535e+01    3.498547e+00
  2.624648e+01    1.652938e+00
  2.635761e+01    1.170269e+00
  2.646874e+01    1.035629e+00
  2.657987e+01    9.753694e-01
  2.669100e+01    9.277756e-01
  2.680212e+01    9.110184e-01
  2.691325e+01    9.429856e-01
  2.702438e+01    1.040056e+00
  2.713551e+01    1.449315e+00
  2.724664e+01    2.477439e+00
  2.735777e+01    1.780864e+00
  2.746890e+01    1.080041e+00
  2.758003e+01    9.216304e-01
  2.769116e+01    8.505799e-01
  2.780229e+01    8.365793e-01
  2.791342e+01    7.972597e-01
  2.802454e+01    8.133718e-01
  2.813567e+01    8.136545e-01
  2.824680e+01    7.915207e-01
  2.835793e+01    8.000209e-01
  2.846906e+01    7.659855e-01
  2.858019e+01    7.654355e-01
  2.869132e+01    7.680610e-01
  2.880245e+01    7.627636e-01
  2.891358e+01    7.585893e-01
  2.902471e+01    7.509325e-01
  2.913583e+01    7.505720e-01
  2.924696e+01    7.550340e-01
  2.935809e+01    7.369879e-01
  2.946922e+01    7.427776e-01
  2.958035e+01    7.343012e-01
  2.969148e+01    7.470606e-01
  2.980261e+01    7.251350e-01
  2.991374e+01    7.295957e-01
  3.002487e+01    7.523370e-01
  3.013600e+01    7.366017e-01
  3.024712e+01    7.452525e-01
  3.035825e+01    7.181101e-01
  3.046938e+01    7.137499e-01
  3.058051e+01    7.293491e-01
  3.069164e+01    7.124527e-01
  3.080277e+01    7.093800e-01
  3.091390e+01    7.360142e-01
  3.102503e+01    7.313919e-01
  3.113616e+01    7.212653e-01
  3.124729e+01    7.258024e-01
  3.135841e+01    7.874045e-01
  3.146954e+01    7.500587e-01
  3.158067e+01    7.874765e-01
  3.169180e+01    8.855996e-01
  3.180293e+01    1.212017e+00
  3.191406e+01    2.218296e+00
  3.202519e+01    2.113343e+00
  3.213632e+01    1.110727e+00
  3.224745e+01    8.752148e-01
  3.235858e+01    7.927480e-01
  3.246970e+01    7.775981e-01
  3.254908e+01    7.194920e-01