File: XRD/2024-07-27_002_Ru-CGO-ex_Activtation_ramp_000002_data_000113.dat
# == pyFAI calibration ==
# Distance Sample to Detector: 0.4 m
# PONI: 9.750e-02, 1.135e-01 m
# Rotations: -0.000175 0.000000 -0.000000 rad
#
# == Fit2d calibration ==
# Distance Sample-beamCenter: 400.000 mm
# Center: x=1514.000, y=1300.000 pix
# Tilt: 0.010 deg  TiltPlanRot: 0.010 deg
#
# Detector Detector	 Spline= None	 PixelSize= 7.500e-05, 7.500e-05 m
#    Detector has a mask: False
#    Detector has a dark current: False
#    detector has a flat field: False
#
# Wavelength: 6.888e-11 m
# Mask applied: user provided
# Dark current applied: False
# Flat field applied: False
# Polarization factor: 0.99
# Normalization factor: 1.0
# --> /home/myspot/data/2024_07_Rosario/Ru-CGO-ex/2024-07-27_002_Ru-CGO-ex_Activtation_ramp_000002_data_000113.dat
#       q_nm^-1             I
  2.003187e-02    0.000000e+00
  1.311609e-01    2.947468e-02
  2.422899e-01    1.012297e-02
  3.534189e-01    3.907200e-02
  4.645479e-01    3.365264e-02
  5.756770e-01    4.768260e-02
  6.868060e-01    2.749204e-02
  7.979350e-01    1.421259e-01
  9.090640e-01    6.100449e-01
  1.020193e+00    1.124778e+00
  1.131322e+00    1.513969e+00
  1.242451e+00    2.141429e+00
  1.353580e+00    2.544875e+00
  1.464709e+00    2.655739e+00
  1.575838e+00    2.867789e+00
  1.686967e+00    2.867434e+00
  1.798096e+00    2.734558e+00
  1.909225e+00    2.828768e+00
  2.020354e+00    2.672239e+00
  2.131483e+00    2.693599e+00
  2.242612e+00    2.699491e+00
  2.353741e+00    2.762618e+00
  2.464870e+00    2.682747e+00
  2.575999e+00    2.754189e+00
  2.687128e+00    2.725975e+00
  2.798257e+00    2.844205e+00
  2.909386e+00    2.815552e+00
  3.020515e+00    2.768128e+00
  3.131644e+00    2.821985e+00
  3.242773e+00    2.795003e+00
  3.353902e+00    2.855400e+00
  3.465031e+00    3.081331e+00
  3.576160e+00    2.956033e+00
  3.687289e+00    2.893739e+00
  3.798418e+00    2.957841e+00
  3.909547e+00    2.996709e+00
  4.020676e+00    2.999279e+00
  4.131806e+00    2.945459e+00
  4.242935e+00    2.960769e+00
  4.354064e+00    2.975819e+00
  4.465193e+00    3.027209e+00
  4.576322e+00    2.938655e+00
  4.687451e+00    3.041582e+00
  4.798580e+00    3.081993e+00
  4.909709e+00    3.042406e+00
  5.020838e+00    3.059670e+00
  5.131967e+00    3.096904e+00
  5.243096e+00    3.054177e+00
  5.354225e+00    3.075309e+00
  5.465354e+00    3.041603e+00
  5.576483e+00    2.972898e+00
  5.687612e+00    3.012305e+00
  5.798741e+00    3.051934e+00
  5.909870e+00    3.027369e+00
  6.020999e+00    2.923098e+00
  6.132128e+00    2.967935e+00
  6.243257e+00    3.037768e+00
  6.354386e+00    2.961572e+00
  6.465515e+00    3.002335e+00
  6.576644e+00    2.979619e+00
  6.687773e+00    3.020391e+00
  6.798902e+00    2.930292e+00
  6.910031e+00    2.943129e+00
  7.021160e+00    2.979389e+00
  7.132289e+00    2.936599e+00
  7.243418e+00    3.055083e+00
  7.354547e+00    2.996269e+00
  7.465676e+00    2.878290e+00
  7.576805e+00    2.932847e+00
  7.687934e+00    2.847933e+00
  7.799063e+00    2.856433e+00
  7.910192e+00    2.856577e+00
  8.021321e+00    2.965055e+00
  8.132450e+00    2.903932e+00
  8.243579e+00    2.820808e+00
  8.354708e+00    2.899792e+00
  8.465837e+00    2.849530e+00
  8.576966e+00    2.767380e+00
  8.688095e+00    2.865334e+00
  8.799224e+00    2.777744e+00
  8.910353e+00    2.845641e+00
  9.021482e+00    2.755162e+00
  9.132611e+00    2.771705e+00
  9.243740e+00    2.738733e+00
  9.354869e+00    2.733210e+00
  9.465998e+00    2.716504e+00
  9.577127e+00    2.706069e+00
  9.688256e+00    2.713850e+00
  9.799385e+00    2.624866e+00
  9.910514e+00    2.635129e+00
  1.002164e+01    2.629947e+00
  1.013277e+01    2.592402e+00
  1.024390e+01    2.577905e+00
  1.035503e+01    2.599762e+00
  1.046616e+01    2.539228e+00
  1.057729e+01    2.587844e+00
  1.068842e+01    2.528002e+00
  1.079955e+01    2.501702e+00
  1.091068e+01    2.544785e+00
  1.102180e+01    2.458447e+00
  1.113293e+01    2.435387e+00
  1.124406e+01    2.443339e+00
  1.135519e+01    2.361772e+00
  1.146632e+01    2.349192e+00
  1.157745e+01    2.387150e+00
  1.168858e+01    2.320606e+00
  1.179971e+01    2.304641e+00
  1.191084e+01    2.282562e+00
  1.202197e+01    2.303388e+00
  1.213309e+01    2.250222e+00
  1.224422e+01    2.257720e+00
  1.235535e+01    2.305672e+00
  1.246648e+01    2.282600e+00
  1.257761e+01    2.316264e+00
  1.268874e+01    2.419817e+00
  1.279987e+01    2.605529e+00
  1.291100e+01    3.212231e+00
  1.302213e+01    5.996612e+00
  1.313326e+01    1.445398e+01
  1.324438e+01    1.242426e+01
  1.335551e+01    4.566603e+00
  1.346664e+01    2.895927e+00
  1.357777e+01    2.402984e+00
  1.368890e+01    2.244213e+00
  1.380003e+01    2.134686e+00
  1.391116e+01    2.072781e+00
  1.402229e+01    2.033564e+00
  1.413342e+01    1.952574e+00
  1.424455e+01    1.957818e+00
  1.435568e+01    1.905522e+00
  1.446680e+01    1.904608e+00
  1.457793e+01    1.874232e+00
  1.468906e+01    1.888162e+00
  1.480019e+01    1.896132e+00
  1.491132e+01    1.958709e+00
  1.502245e+01    2.191632e+00
  1.513358e+01    3.292438e+00
  1.524471e+01    5.674573e+00
  1.535584e+01    4.006618e+00
  1.546697e+01    2.235889e+00
  1.557809e+01    1.845546e+00
  1.568922e+01    1.703885e+00
  1.580035e+01    1.701922e+00
  1.591148e+01    1.606923e+00
  1.602261e+01    1.620636e+00
  1.613374e+01    1.547065e+00
  1.624487e+01    1.574875e+00
  1.635600e+01    1.497167e+00
  1.646713e+01    1.517602e+00
  1.657826e+01    1.484000e+00
  1.668938e+01    1.433746e+00
  1.680051e+01    1.455867e+00
  1.691164e+01    1.446720e+00
  1.702277e+01    1.417409e+00
  1.713390e+01    1.404646e+00
  1.724503e+01    1.409774e+00
  1.735616e+01    1.349797e+00
  1.746729e+01    1.344910e+00
  1.757842e+01    1.328492e+00
  1.768955e+01    1.311973e+00
  1.780067e+01    1.299990e+00
  1.791180e+01    1.299203e+00
  1.802293e+01    1.312416e+00
  1.813406e+01    1.248369e+00
  1.824519e+01    1.253858e+00
  1.835632e+01    1.249329e+00
  1.846745e+01    1.269930e+00
  1.857858e+01    1.195185e+00
  1.868971e+01    1.218325e+00
  1.880084e+01    1.196920e+00
  1.891196e+01    1.187186e+00
  1.902309e+01    1.168280e+00
  1.913422e+01    1.148794e+00
  1.924535e+01    1.175701e+00
  1.935648e+01    1.127289e+00
  1.946761e+01    1.159607e+00
  1.957874e+01    1.149353e+00
  1.968987e+01    1.103110e+00
  1.980100e+01    1.127834e+00
  1.991213e+01    1.102994e+00
  2.002325e+01    1.127320e+00
  2.013438e+01    1.089707e+00
  2.024551e+01    1.096022e+00
  2.035664e+01    1.067431e+00
  2.046777e+01    1.051719e+00
  2.057890e+01    1.046095e+00
  2.069003e+01    1.086627e+00
  2.080116e+01    1.051095e+00
  2.091229e+01    1.097798e+00
  2.102342e+01    1.064042e+00
  2.113455e+01    1.074572e+00
  2.124567e+01    1.084503e+00
  2.135680e+01    1.119629e+00
  2.146793e+01    1.223619e+00
  2.157906e+01    1.452489e+00
  2.169019e+01    2.207374e+00
  2.180132e+01    5.282040e+00
  2.191245e+01    9.593008e+00
  2.202358e+01    4.220554e+00
  2.213471e+01    1.910490e+00
  2.224584e+01    1.313380e+00
  2.235696e+01    1.148914e+00
  2.246809e+01    1.036794e+00
  2.257922e+01    9.586124e-01
  2.269035e+01    9.287204e-01
  2.280148e+01    9.128066e-01
  2.291261e+01    9.206456e-01
  2.302374e+01    8.862884e-01
  2.313487e+01    8.775989e-01
  2.324600e+01    8.647367e-01
  2.335713e+01    8.350247e-01
  2.346825e+01    8.302373e-01
  2.357938e+01    8.270193e-01
  2.369051e+01    8.154494e-01
  2.380164e+01    8.112008e-01
  2.391277e+01    7.947291e-01
  2.402390e+01    7.889978e-01
  2.413503e+01    7.541602e-01
  2.424616e+01    7.726088e-01
  2.435729e+01    7.643524e-01
  2.446842e+01    7.705434e-01
  2.457954e+01    7.727854e-01
  2.469067e+01    7.808097e-01
  2.480180e+01    7.731167e-01
  2.491293e+01    7.915492e-01
  2.502406e+01    7.950547e-01
  2.513519e+01    7.922428e-01
  2.524632e+01    8.349146e-01
  2.535745e+01    8.694885e-01
  2.546858e+01    9.567108e-01
  2.557971e+01    1.058155e+00
  2.569083e+01    1.334521e+00
  2.580196e+01    2.487100e+00
  2.591309e+01    6.095575e+00
  2.602422e+01    6.705689e+00
  2.613535e+01    2.491632e+00
  2.624648e+01    1.386023e+00
  2.635761e+01    1.065913e+00
  2.646874e+01    9.585890e-01
  2.657987e+01    9.144910e-01
  2.669100e+01    8.798478e-01
  2.680212e+01    8.792698e-01
  2.691325e+01    9.248512e-01
  2.702438e+01    1.045526e+00
  2.713551e+01    1.541648e+00
  2.724664e+01    2.332388e+00
  2.735777e+01    1.375712e+00
  2.746890e+01    9.736798e-01
  2.758003e+01    8.797410e-01
  2.769116e+01    8.459877e-01
  2.780229e+01    8.275936e-01
  2.791342e+01    8.152946e-01
  2.802454e+01    7.962371e-01
  2.813567e+01    7.802795e-01
  2.824680e+01    7.599308e-01
  2.835793e+01    7.600419e-01
  2.846906e+01    7.590110e-01
  2.858019e+01    7.284268e-01
  2.869132e+01    7.406458e-01
  2.880245e+01    7.464190e-01
  2.891358e+01    7.383730e-01
  2.902471e+01    7.236036e-01
  2.913583e+01    7.232505e-01
  2.924696e+01    7.341616e-01
  2.935809e+01    7.126002e-01
  2.946922e+01    7.313387e-01
  2.958035e+01    7.531736e-01
  2.969148e+01    6.911662e-01
  2.980261e+01    7.212114e-01
  2.991374e+01    7.018237e-01
  3.002487e+01    7.082666e-01
  3.013600e+01    7.197712e-01
  3.024712e+01    6.904279e-01
  3.035825e+01    7.186155e-01
  3.046938e+01    6.907807e-01
  3.058051e+01    7.084268e-01
  3.069164e+01    6.878667e-01
  3.080277e+01    7.182809e-01
  3.091390e+01    7.094213e-01
  3.102503e+01    7.274687e-01
  3.113616e+01    7.109700e-01
  3.124729e+01    7.173083e-01
  3.135841e+01    6.970229e-01
  3.146954e+01    7.430655e-01
  3.158067e+01    7.953410e-01
  3.169180e+01    9.061003e-01
  3.180293e+01    1.307705e+00
  3.191406e+01    2.236579e+00
  3.202519e+01    1.515601e+00
  3.213632e+01    9.429797e-01
  3.224745e+01    7.786354e-01
  3.235858e+01    7.251722e-01
  3.246970e+01    7.229306e-01
  3.254908e+01    7.230620e-01