File: XRD/2024-07-27_002_Ru-CGO-ex_Activtation_ramp_000002_data_000139.dat
# == pyFAI calibration ==
# Distance Sample to Detector: 0.4 m
# PONI: 9.750e-02, 1.135e-01 m
# Rotations: -0.000175 0.000000 -0.000000 rad
#
# == Fit2d calibration ==
# Distance Sample-beamCenter: 400.000 mm
# Center: x=1514.000, y=1300.000 pix
# Tilt: 0.010 deg  TiltPlanRot: 0.010 deg
#
# Detector Detector	 Spline= None	 PixelSize= 7.500e-05, 7.500e-05 m
#    Detector has a mask: False
#    Detector has a dark current: False
#    detector has a flat field: False
#
# Wavelength: 6.888e-11 m
# Mask applied: user provided
# Dark current applied: False
# Flat field applied: False
# Polarization factor: 0.99
# Normalization factor: 1.0
# --> /home/myspot/data/2024_07_Rosario/Ru-CGO-ex/2024-07-27_002_Ru-CGO-ex_Activtation_ramp_000002_data_000139.dat
#       q_nm^-1             I
  2.003187e-02    7.712225e-02
  1.311609e-01    6.750314e-02
  2.422899e-01    2.741941e-02
  3.534189e-01    1.383485e-02
  4.645479e-01    2.416535e-02
  5.756770e-01    4.262181e-02
  6.868060e-01    4.256130e-02
  7.979350e-01    1.315325e-01
  9.090640e-01    5.018163e-01
  1.020193e+00    1.157779e+00
  1.131322e+00    1.415410e+00
  1.242451e+00    2.206515e+00
  1.353580e+00    2.461882e+00
  1.464709e+00    2.646211e+00
  1.575838e+00    2.879389e+00
  1.686967e+00    2.856173e+00
  1.798096e+00    2.744525e+00
  1.909225e+00    2.730698e+00
  2.020354e+00    2.612846e+00
  2.131483e+00    2.675231e+00
  2.242612e+00    2.689355e+00
  2.353741e+00    2.668471e+00
  2.464870e+00    2.709599e+00
  2.575999e+00    2.824642e+00
  2.687128e+00    2.807891e+00
  2.798257e+00    2.797041e+00
  2.909386e+00    2.793671e+00
  3.020515e+00    2.797265e+00
  3.131644e+00    2.761603e+00
  3.242773e+00    2.958368e+00
  3.353902e+00    2.969482e+00
  3.465031e+00    3.017761e+00
  3.576160e+00    2.922248e+00
  3.687289e+00    2.934123e+00
  3.798418e+00    2.953623e+00
  3.909547e+00    3.033605e+00
  4.020676e+00    2.891827e+00
  4.131806e+00    3.064919e+00
  4.242935e+00    3.098029e+00
  4.354064e+00    2.990010e+00
  4.465193e+00    3.027423e+00
  4.576322e+00    2.991966e+00
  4.687451e+00    3.064219e+00
  4.798580e+00    3.115737e+00
  4.909709e+00    3.156012e+00
  5.020838e+00    3.126130e+00
  5.131967e+00    3.023513e+00
  5.243096e+00    3.150473e+00
  5.354225e+00    3.070394e+00
  5.465354e+00    3.004453e+00
  5.576483e+00    3.005989e+00
  5.687612e+00    2.995977e+00
  5.798741e+00    3.092028e+00
  5.909870e+00    2.943027e+00
  6.020999e+00    3.030585e+00
  6.132128e+00    2.992426e+00
  6.243257e+00    3.041400e+00
  6.354386e+00    3.083348e+00
  6.465515e+00    2.987755e+00
  6.576644e+00    3.065542e+00
  6.687773e+00    3.049416e+00
  6.798902e+00    3.016720e+00
  6.910031e+00    3.010801e+00
  7.021160e+00    2.899139e+00
  7.132289e+00    3.012977e+00
  7.243418e+00    2.906072e+00
  7.354547e+00    2.989101e+00
  7.465676e+00    2.964472e+00
  7.576805e+00    2.953151e+00
  7.687934e+00    2.916267e+00
  7.799063e+00    2.934798e+00
  7.910192e+00    2.905883e+00
  8.021321e+00    2.915868e+00
  8.132450e+00    2.918401e+00
  8.243579e+00    2.910616e+00
  8.354708e+00    2.932675e+00
  8.465837e+00    2.868881e+00
  8.576966e+00    2.861554e+00
  8.688095e+00    2.796865e+00
  8.799224e+00    2.766794e+00
  8.910353e+00    2.827157e+00
  9.021482e+00    2.824358e+00
  9.132611e+00    2.827930e+00
  9.243740e+00    2.756563e+00
  9.354869e+00    2.710427e+00
  9.465998e+00    2.671769e+00
  9.577127e+00    2.791537e+00
  9.688256e+00    2.776514e+00
  9.799385e+00    2.658480e+00
  9.910514e+00    2.717453e+00
  1.002164e+01    2.726302e+00
  1.013277e+01    2.664541e+00
  1.024390e+01    2.627940e+00
  1.035503e+01    2.650372e+00
  1.046616e+01    2.588774e+00
  1.057729e+01    2.620423e+00
  1.068842e+01    2.488970e+00
  1.079955e+01    2.499301e+00
  1.091068e+01    2.496420e+00
  1.102180e+01    2.469404e+00
  1.113293e+01    2.476041e+00
  1.124406e+01    2.441669e+00
  1.135519e+01    2.392894e+00
  1.146632e+01    2.392716e+00
  1.157745e+01    2.410008e+00
  1.168858e+01    2.315114e+00
  1.179971e+01    2.373801e+00
  1.191084e+01    2.333015e+00
  1.202197e+01    2.305322e+00
  1.213309e+01    2.283320e+00
  1.224422e+01    2.314022e+00
  1.235535e+01    2.353847e+00
  1.246648e+01    2.294284e+00
  1.257761e+01    2.369126e+00
  1.268874e+01    2.448956e+00
  1.279987e+01    2.624206e+00
  1.291100e+01    3.317538e+00
  1.302213e+01    6.098049e+00
  1.313326e+01    1.448404e+01
  1.324438e+01    1.158956e+01
  1.335551e+01    4.303356e+00
  1.346664e+01    2.875667e+00
  1.357777e+01    2.409233e+00
  1.368890e+01    2.251799e+00
  1.380003e+01    2.137841e+00
  1.391116e+01    2.038066e+00
  1.402229e+01    1.995208e+00
  1.413342e+01    2.008325e+00
  1.424455e+01    1.995990e+00
  1.435568e+01    1.941346e+00
  1.446680e+01    1.926396e+00
  1.457793e+01    1.902537e+00
  1.468906e+01    1.907941e+00
  1.480019e+01    1.926554e+00
  1.491132e+01    1.932885e+00
  1.502245e+01    2.207218e+00
  1.513358e+01    3.488410e+00
  1.524471e+01    5.585603e+00
  1.535584e+01    3.788610e+00
  1.546697e+01    2.135868e+00
  1.557809e+01    1.874410e+00
  1.568922e+01    1.724760e+00
  1.580035e+01    1.685454e+00
  1.591148e+01    1.621631e+00
  1.602261e+01    1.588637e+00
  1.613374e+01    1.569501e+00
  1.624487e+01    1.526982e+00
  1.635600e+01    1.521648e+00
  1.646713e+01    1.513245e+00
  1.657826e+01    1.499538e+00
  1.668938e+01    1.462320e+00
  1.680051e+01    1.446891e+00
  1.691164e+01    1.453748e+00
  1.702277e+01    1.387700e+00
  1.713390e+01    1.376946e+00
  1.724503e+01    1.411764e+00
  1.735616e+01    1.341904e+00
  1.746729e+01    1.379058e+00
  1.757842e+01    1.350329e+00
  1.768955e+01    1.388415e+00
  1.780067e+01    1.342849e+00
  1.791180e+01    1.319468e+00
  1.802293e+01    1.284865e+00
  1.813406e+01    1.268583e+00
  1.824519e+01    1.267962e+00
  1.835632e+01    1.237494e+00
  1.846745e+01    1.273023e+00
  1.857858e+01    1.239528e+00
  1.868971e+01    1.209650e+00
  1.880084e+01    1.191291e+00
  1.891196e+01    1.185661e+00
  1.902309e+01    1.187029e+00
  1.913422e+01    1.136039e+00
  1.924535e+01    1.163476e+00
  1.935648e+01    1.181959e+00
  1.946761e+01    1.176543e+00
  1.957874e+01    1.130204e+00
  1.968987e+01    1.122950e+00
  1.980100e+01    1.156310e+00
  1.991213e+01    1.104475e+00
  2.002325e+01    1.101828e+00
  2.013438e+01    1.103410e+00
  2.024551e+01    1.086644e+00
  2.035664e+01    1.072783e+00
  2.046777e+01    1.107600e+00
  2.057890e+01    1.058377e+00
  2.069003e+01    1.066473e+00
  2.080116e+01    1.051196e+00
  2.091229e+01    1.083156e+00
  2.102342e+01    1.075254e+00
  2.113455e+01    1.076635e+00
  2.124567e+01    1.101790e+00
  2.135680e+01    1.118707e+00
  2.146793e+01    1.221929e+00
  2.157906e+01    1.448360e+00
  2.169019e+01    2.320395e+00
  2.180132e+01    5.479044e+00
  2.191245e+01    9.246778e+00
  2.202358e+01    3.832290e+00
  2.213471e+01    1.794834e+00
  2.224584e+01    1.269137e+00
  2.235696e+01    1.127713e+00
  2.246809e+01    1.048649e+00
  2.257922e+01    9.715468e-01
  2.269035e+01    9.539471e-01
  2.280148e+01    9.378979e-01
  2.291261e+01    9.098879e-01
  2.302374e+01    8.875992e-01
  2.313487e+01    8.764474e-01
  2.324600e+01    8.704798e-01
  2.335713e+01    8.548242e-01
  2.346825e+01    8.551705e-01
  2.357938e+01    8.450033e-01
  2.369051e+01    8.156475e-01
  2.380164e+01    8.214588e-01
  2.391277e+01    7.950364e-01
  2.402390e+01    7.901161e-01
  2.413503e+01    7.946478e-01
  2.424616e+01    7.622117e-01
  2.435729e+01    7.731709e-01
  2.446842e+01    7.888349e-01
  2.457954e+01    7.890634e-01
  2.469067e+01    7.745093e-01
  2.480180e+01    7.649254e-01
  2.491293e+01    7.870414e-01
  2.502406e+01    7.921630e-01
  2.513519e+01    8.217309e-01
  2.524632e+01    8.301319e-01
  2.535745e+01    8.845174e-01
  2.546858e+01    9.236010e-01
  2.557971e+01    1.048683e+00
  2.569083e+01    1.388741e+00
  2.580196e+01    2.596573e+00
  2.591309e+01    6.275433e+00
  2.602422e+01    6.093071e+00
  2.613535e+01    2.268650e+00
  2.624648e+01    1.303535e+00
  2.635761e+01    1.012578e+00
  2.646874e+01    9.461868e-01
  2.657987e+01    8.978166e-01
  2.669100e+01    8.819628e-01
  2.680212e+01    8.701653e-01
  2.691325e+01    9.232510e-01
  2.702438e+01    1.042774e+00
  2.713551e+01    1.633502e+00
  2.724664e+01    2.195669e+00
  2.735777e+01    1.305358e+00
  2.746890e+01    9.453178e-01
  2.758003e+01    8.630724e-01
  2.769116e+01    8.263581e-01
  2.780229e+01    7.998267e-01
  2.791342e+01    7.942452e-01
  2.802454e+01    7.876186e-01
  2.813567e+01    7.668082e-01
  2.824680e+01    7.587258e-01
  2.835793e+01    7.704881e-01
  2.846906e+01    7.472842e-01
  2.858019e+01    7.322417e-01
  2.869132e+01    7.377432e-01
  2.880245e+01    7.476672e-01
  2.891358e+01    7.472068e-01
  2.902471e+01    7.272650e-01
  2.913583e+01    7.261361e-01
  2.924696e+01    7.223398e-01
  2.935809e+01    7.342442e-01
  2.946922e+01    6.996540e-01
  2.958035e+01    7.098945e-01
  2.969148e+01    7.180237e-01
  2.980261e+01    7.133035e-01
  2.991374e+01    7.138770e-01
  3.002487e+01    7.325368e-01
  3.013600e+01    7.290364e-01
  3.024712e+01    7.198702e-01
  3.035825e+01    6.860811e-01
  3.046938e+01    6.960007e-01
  3.058051e+01    6.917297e-01
  3.069164e+01    7.115740e-01
  3.080277e+01    7.020807e-01
  3.091390e+01    6.917922e-01
  3.102503e+01    7.122052e-01
  3.113616e+01    7.138808e-01
  3.124729e+01    7.358507e-01
  3.135841e+01    7.264614e-01
  3.146954e+01    7.433542e-01
  3.158067e+01    7.780030e-01
  3.169180e+01    9.172573e-01
  3.180293e+01    1.364980e+00
  3.191406e+01    2.242382e+00
  3.202519e+01    1.397389e+00
  3.213632e+01    9.131652e-01
  3.224745e+01    7.962731e-01
  3.235858e+01    7.379454e-01
  3.246970e+01    7.316117e-01
  3.254908e+01    7.205275e-01