File: XRD/2024-07-27_002_Ru-CGO-ex_Activtation_ramp_000002_data_000108.dat
# == pyFAI calibration ==
# Distance Sample to Detector: 0.4 m
# PONI: 9.750e-02, 1.135e-01 m
# Rotations: -0.000175 0.000000 -0.000000 rad
#
# == Fit2d calibration ==
# Distance Sample-beamCenter: 400.000 mm
# Center: x=1514.000, y=1300.000 pix
# Tilt: 0.010 deg  TiltPlanRot: 0.010 deg
#
# Detector Detector	 Spline= None	 PixelSize= 7.500e-05, 7.500e-05 m
#    Detector has a mask: False
#    Detector has a dark current: False
#    detector has a flat field: False
#
# Wavelength: 6.888e-11 m
# Mask applied: user provided
# Dark current applied: False
# Flat field applied: False
# Polarization factor: 0.99
# Normalization factor: 1.0
# --> /home/myspot/data/2024_07_Rosario/Ru-CGO-ex/2024-07-27_002_Ru-CGO-ex_Activtation_ramp_000002_data_000108.dat
#       q_nm^-1             I
  2.003187e-02    7.712225e-02
  1.311609e-01    3.121636e-02
  2.422899e-01    3.221241e-02
  3.534189e-01    2.230208e-02
  4.645479e-01    4.060603e-02
  5.756770e-01    2.513447e-02
  6.868060e-01    3.781554e-02
  7.979350e-01    1.264805e-01
  9.090640e-01    6.420594e-01
  1.020193e+00    1.121349e+00
  1.131322e+00    1.332874e+00
  1.242451e+00    2.071639e+00
  1.353580e+00    2.446719e+00
  1.464709e+00    2.588192e+00
  1.575838e+00    2.931395e+00
  1.686967e+00    2.835613e+00
  1.798096e+00    2.732344e+00
  1.909225e+00    2.786167e+00
  2.020354e+00    2.716261e+00
  2.131483e+00    2.741081e+00
  2.242612e+00    2.614529e+00
  2.353741e+00    2.686499e+00
  2.464870e+00    2.738359e+00
  2.575999e+00    2.745663e+00
  2.687128e+00    2.766465e+00
  2.798257e+00    2.572879e+00
  2.909386e+00    2.798121e+00
  3.020515e+00    2.768461e+00
  3.131644e+00    2.873140e+00
  3.242773e+00    2.941937e+00
  3.353902e+00    2.907276e+00
  3.465031e+00    2.996882e+00
  3.576160e+00    2.936389e+00
  3.687289e+00    2.931070e+00
  3.798418e+00    2.876455e+00
  3.909547e+00    2.929064e+00
  4.020676e+00    3.010437e+00
  4.131806e+00    2.974708e+00
  4.242935e+00    3.012962e+00
  4.354064e+00    3.017119e+00
  4.465193e+00    3.028780e+00
  4.576322e+00    3.048745e+00
  4.687451e+00    3.008938e+00
  4.798580e+00    3.018162e+00
  4.909709e+00    3.102056e+00
  5.020838e+00    2.987133e+00
  5.131967e+00    3.071153e+00
  5.243096e+00    3.021041e+00
  5.354225e+00    3.113217e+00
  5.465354e+00    2.973912e+00
  5.576483e+00    3.045853e+00
  5.687612e+00    2.968915e+00
  5.798741e+00    2.993458e+00
  5.909870e+00    2.952878e+00
  6.020999e+00    2.935522e+00
  6.132128e+00    3.008447e+00
  6.243257e+00    3.008726e+00
  6.354386e+00    2.964803e+00
  6.465515e+00    2.980295e+00
  6.576644e+00    2.918280e+00
  6.687773e+00    3.068938e+00
  6.798902e+00    2.980892e+00
  6.910031e+00    3.016484e+00
  7.021160e+00    2.975413e+00
  7.132289e+00    2.981679e+00
  7.243418e+00    2.983010e+00
  7.354547e+00    2.926913e+00
  7.465676e+00    2.910693e+00
  7.576805e+00    2.975377e+00
  7.687934e+00    2.953447e+00
  7.799063e+00    2.834361e+00
  7.910192e+00    2.885754e+00
  8.021321e+00    2.878469e+00
  8.132450e+00    2.832680e+00
  8.243579e+00    2.895551e+00
  8.354708e+00    2.807153e+00
  8.465837e+00    2.820069e+00
  8.576966e+00    2.817101e+00
  8.688095e+00    2.818985e+00
  8.799224e+00    2.865309e+00
  8.910353e+00    2.815494e+00
  9.021482e+00    2.754139e+00
  9.132611e+00    2.675116e+00
  9.243740e+00    2.762114e+00
  9.354869e+00    2.695978e+00
  9.465998e+00    2.750276e+00
  9.577127e+00    2.740520e+00
  9.688256e+00    2.659421e+00
  9.799385e+00    2.700965e+00
  9.910514e+00    2.635551e+00
  1.002164e+01    2.633571e+00
  1.013277e+01    2.580275e+00
  1.024390e+01    2.582720e+00
  1.035503e+01    2.549564e+00
  1.046616e+01    2.590368e+00
  1.057729e+01    2.539831e+00
  1.068842e+01    2.479199e+00
  1.079955e+01    2.545945e+00
  1.091068e+01    2.515049e+00
  1.102180e+01    2.416657e+00
  1.113293e+01    2.433238e+00
  1.124406e+01    2.389701e+00
  1.135519e+01    2.459405e+00
  1.146632e+01    2.389118e+00
  1.157745e+01    2.309197e+00
  1.168858e+01    2.324122e+00
  1.179971e+01    2.317483e+00
  1.191084e+01    2.292485e+00
  1.202197e+01    2.274441e+00
  1.213309e+01    2.315004e+00
  1.224422e+01    2.288898e+00
  1.235535e+01    2.265903e+00
  1.246648e+01    2.304689e+00
  1.257761e+01    2.316288e+00
  1.268874e+01    2.418860e+00
  1.279987e+01    2.638616e+00
  1.291100e+01    3.329210e+00
  1.302213e+01    6.105751e+00
  1.313326e+01    1.469235e+01
  1.324438e+01    1.247998e+01
  1.335551e+01    4.549010e+00
  1.346664e+01    2.883533e+00
  1.357777e+01    2.403039e+00
  1.368890e+01    2.232370e+00
  1.380003e+01    2.128093e+00
  1.391116e+01    2.062766e+00
  1.402229e+01    2.061681e+00
  1.413342e+01    1.960153e+00
  1.424455e+01    1.949023e+00
  1.435568e+01    1.938346e+00
  1.446680e+01    1.896232e+00
  1.457793e+01    1.869817e+00
  1.468906e+01    1.883968e+00
  1.480019e+01    1.894541e+00
  1.491132e+01    1.943214e+00
  1.502245e+01    2.223716e+00
  1.513358e+01    3.370558e+00
  1.524471e+01    5.722342e+00
  1.535584e+01    3.966032e+00
  1.546697e+01    2.283109e+00
  1.557809e+01    1.895217e+00
  1.568922e+01    1.761591e+00
  1.580035e+01    1.605179e+00
  1.591148e+01    1.605583e+00
  1.602261e+01    1.604618e+00
  1.613374e+01    1.554280e+00
  1.624487e+01    1.528279e+00
  1.635600e+01    1.509776e+00
  1.646713e+01    1.459739e+00
  1.657826e+01    1.461119e+00
  1.668938e+01    1.437915e+00
  1.680051e+01    1.467278e+00
  1.691164e+01    1.436427e+00
  1.702277e+01    1.412735e+00
  1.713390e+01    1.407511e+00
  1.724503e+01    1.380163e+00
  1.735616e+01    1.344697e+00
  1.746729e+01    1.343570e+00
  1.757842e+01    1.324658e+00
  1.768955e+01    1.338251e+00
  1.780067e+01    1.292213e+00
  1.791180e+01    1.301825e+00
  1.802293e+01    1.293718e+00
  1.813406e+01    1.245858e+00
  1.824519e+01    1.264623e+00
  1.835632e+01    1.269363e+00
  1.846745e+01    1.260349e+00
  1.857858e+01    1.225505e+00
  1.868971e+01    1.210769e+00
  1.880084e+01    1.206593e+00
  1.891196e+01    1.198630e+00
  1.902309e+01    1.171379e+00
  1.913422e+01    1.150313e+00
  1.924535e+01    1.185136e+00
  1.935648e+01    1.161723e+00
  1.946761e+01    1.164824e+00
  1.957874e+01    1.133928e+00
  1.968987e+01    1.140096e+00
  1.980100e+01    1.112311e+00
  1.991213e+01    1.089269e+00
  2.002325e+01    1.090045e+00
  2.013438e+01    1.135466e+00
  2.024551e+01    1.078203e+00
  2.035664e+01    1.087071e+00
  2.046777e+01    1.073426e+00
  2.057890e+01    1.053356e+00
  2.069003e+01    1.057510e+00
  2.080116e+01    1.058826e+00
  2.091229e+01    1.061743e+00
  2.102342e+01    1.059423e+00
  2.113455e+01    1.050703e+00
  2.124567e+01    1.098196e+00
  2.135680e+01    1.129586e+00
  2.146793e+01    1.212375e+00
  2.157906e+01    1.443113e+00
  2.169019e+01    2.224404e+00
  2.180132e+01    5.373189e+00
  2.191245e+01    9.722589e+00
  2.202358e+01    4.157891e+00
  2.213471e+01    1.890637e+00
  2.224584e+01    1.308411e+00
  2.235696e+01    1.125564e+00
  2.246809e+01    1.034894e+00
  2.257922e+01    9.923584e-01
  2.269035e+01    9.478602e-01
  2.280148e+01    9.183915e-01
  2.291261e+01    9.153652e-01
  2.302374e+01    8.869323e-01
  2.313487e+01    8.994607e-01
  2.324600e+01    8.578439e-01
  2.335713e+01    8.619843e-01
  2.346825e+01    8.546395e-01
  2.357938e+01    8.173230e-01
  2.369051e+01    8.238909e-01
  2.380164e+01    7.736487e-01
  2.391277e+01    8.049789e-01
  2.402390e+01    8.103690e-01
  2.413503e+01    7.802538e-01
  2.424616e+01    7.813759e-01
  2.435729e+01    7.903420e-01
  2.446842e+01    7.882973e-01
  2.457954e+01    7.850906e-01
  2.469067e+01    7.822941e-01
  2.480180e+01    7.788678e-01
  2.491293e+01    7.948628e-01
  2.502406e+01    7.780179e-01
  2.513519e+01    8.157490e-01
  2.524632e+01    8.235011e-01
  2.535745e+01    8.695663e-01
  2.546858e+01    9.341850e-01
  2.557971e+01    1.050813e+00
  2.569083e+01    1.364793e+00
  2.580196e+01    2.532999e+00
  2.591309e+01    6.175794e+00
  2.602422e+01    6.677082e+00
  2.613535e+01    2.431356e+00
  2.624648e+01    1.380362e+00
  2.635761e+01    1.051756e+00
  2.646874e+01    9.280425e-01
  2.657987e+01    9.291406e-01
  2.669100e+01    8.791527e-01
  2.680212e+01    8.828945e-01
  2.691325e+01    9.069768e-01
  2.702438e+01    1.021559e+00
  2.713551e+01    1.565185e+00
  2.724664e+01    2.367690e+00
  2.735777e+01    1.371083e+00
  2.746890e+01    9.763367e-01
  2.758003e+01    8.704937e-01
  2.769116e+01    8.317626e-01
  2.780229e+01    7.996897e-01
  2.791342e+01    7.985766e-01
  2.802454e+01    7.806531e-01
  2.813567e+01    7.477335e-01
  2.824680e+01    7.738775e-01
  2.835793e+01    7.693449e-01
  2.846906e+01    7.526473e-01
  2.858019e+01    7.298840e-01
  2.869132e+01    7.549772e-01
  2.880245e+01    7.473091e-01
  2.891358e+01    7.196487e-01
  2.902471e+01    7.338371e-01
  2.913583e+01    7.276860e-01
  2.924696e+01    7.238767e-01
  2.935809e+01    7.225434e-01
  2.946922e+01    7.263293e-01
  2.958035e+01    7.099094e-01
  2.969148e+01    7.276302e-01
  2.980261e+01    7.164481e-01
  2.991374e+01    7.163607e-01
  3.002487e+01    7.296338e-01
  3.013600e+01    7.138714e-01
  3.024712e+01    7.275752e-01
  3.035825e+01    6.905078e-01
  3.046938e+01    6.911703e-01
  3.058051e+01    7.005148e-01
  3.069164e+01    7.240008e-01
  3.080277e+01    6.780164e-01
  3.091390e+01    7.060063e-01
  3.102503e+01    6.957940e-01
  3.113616e+01    7.047004e-01
  3.124729e+01    7.093574e-01
  3.135841e+01    7.328768e-01
  3.146954e+01    7.405529e-01
  3.158067e+01    7.734455e-01
  3.169180e+01    9.114001e-01
  3.180293e+01    1.310014e+00
  3.191406e+01    2.298136e+00
  3.202519e+01    1.538148e+00
  3.213632e+01    9.280381e-01
  3.224745e+01    7.977490e-01
  3.235858e+01    7.509359e-01
  3.246970e+01    7.383316e-01
  3.254908e+01    7.055529e-01