File: XRD/2024-07-27_002_Ru-CGO-ex_Activtation_ramp_000002_data_000179.dat
# == pyFAI calibration ==
# Distance Sample to Detector: 0.4 m
# PONI: 9.750e-02, 1.135e-01 m
# Rotations: -0.000175 0.000000 -0.000000 rad
#
# == Fit2d calibration ==
# Distance Sample-beamCenter: 400.000 mm
# Center: x=1514.000, y=1300.000 pix
# Tilt: 0.010 deg  TiltPlanRot: 0.010 deg
#
# Detector Detector	 Spline= None	 PixelSize= 7.500e-05, 7.500e-05 m
#    Detector has a mask: False
#    Detector has a dark current: False
#    detector has a flat field: False
#
# Wavelength: 6.888e-11 m
# Mask applied: user provided
# Dark current applied: False
# Flat field applied: False
# Polarization factor: 0.99
# Normalization factor: 1.0
# --> /home/myspot/data/2024_07_Rosario/Ru-CGO-ex/2024-07-27_002_Ru-CGO-ex_Activtation_ramp_000002_data_000179.dat
#       q_nm^-1             I
  2.003187e-02    0.000000e+00
  1.311609e-01    0.000000e+00
  2.422899e-01    3.009280e-02
  3.534189e-01    1.661496e-02
  4.645479e-01    3.047342e-02
  5.756770e-01    3.729355e-02
  6.868060e-01    4.430439e-02
  7.979350e-01    1.344566e-01
  9.090640e-01    5.771846e-01
  1.020193e+00    1.102514e+00
  1.131322e+00    1.386766e+00
  1.242451e+00    2.206314e+00
  1.353580e+00    2.605423e+00
  1.464709e+00    2.722783e+00
  1.575838e+00    2.815691e+00
  1.686967e+00    2.803831e+00
  1.798096e+00    2.911290e+00
  1.909225e+00    2.725377e+00
  2.020354e+00    2.716403e+00
  2.131483e+00    2.606576e+00
  2.242612e+00    2.885610e+00
  2.353741e+00    2.730317e+00
  2.464870e+00    2.845670e+00
  2.575999e+00    2.668617e+00
  2.687128e+00    2.862772e+00
  2.798257e+00    2.881473e+00
  2.909386e+00    2.785702e+00
  3.020515e+00    2.970659e+00
  3.131644e+00    2.924223e+00
  3.242773e+00    2.840156e+00
  3.353902e+00    2.930562e+00
  3.465031e+00    3.017902e+00
  3.576160e+00    3.019135e+00
  3.687289e+00    3.047134e+00
  3.798418e+00    2.942310e+00
  3.909547e+00    3.041635e+00
  4.020676e+00    3.129951e+00
  4.131806e+00    3.002176e+00
  4.242935e+00    3.106380e+00
  4.354064e+00    3.101319e+00
  4.465193e+00    3.021340e+00
  4.576322e+00    3.013253e+00
  4.687451e+00    3.105985e+00
  4.798580e+00    3.084169e+00
  4.909709e+00    3.142516e+00
  5.020838e+00    3.134995e+00
  5.131967e+00    3.127701e+00
  5.243096e+00    3.178182e+00
  5.354225e+00    3.173862e+00
  5.465354e+00    3.126047e+00
  5.576483e+00    3.167026e+00
  5.687612e+00    3.069649e+00
  5.798741e+00    3.094316e+00
  5.909870e+00    3.061515e+00
  6.020999e+00    2.993250e+00
  6.132128e+00    3.047174e+00
  6.243257e+00    3.099180e+00
  6.354386e+00    3.070782e+00
  6.465515e+00    3.058765e+00
  6.576644e+00    3.053753e+00
  6.687773e+00    3.103229e+00
  6.798902e+00    3.040391e+00
  6.910031e+00    3.008425e+00
  7.021160e+00    3.068414e+00
  7.132289e+00    3.041414e+00
  7.243418e+00    2.969169e+00
  7.354547e+00    2.966718e+00
  7.465676e+00    2.969145e+00
  7.576805e+00    2.986748e+00
  7.687934e+00    3.006511e+00
  7.799063e+00    2.960828e+00
  7.910192e+00    2.912435e+00
  8.021321e+00    2.962339e+00
  8.132450e+00    2.939572e+00
  8.243579e+00    3.028682e+00
  8.354708e+00    2.943288e+00
  8.465837e+00    2.871178e+00
  8.576966e+00    2.850884e+00
  8.688095e+00    2.912364e+00
  8.799224e+00    2.847310e+00
  8.910353e+00    2.854287e+00
  9.021482e+00    2.851608e+00
  9.132611e+00    2.835414e+00
  9.243740e+00    2.810604e+00
  9.354869e+00    2.768569e+00
  9.465998e+00    2.775522e+00
  9.577127e+00    2.779865e+00
  9.688256e+00    2.750787e+00
  9.799385e+00    2.650906e+00
  9.910514e+00    2.644827e+00
  1.002164e+01    2.696235e+00
  1.013277e+01    2.648345e+00
  1.024390e+01    2.702871e+00
  1.035503e+01    2.652745e+00
  1.046616e+01    2.715013e+00
  1.057729e+01    2.609420e+00
  1.068842e+01    2.640319e+00
  1.079955e+01    2.526724e+00
  1.091068e+01    2.546330e+00
  1.102180e+01    2.485969e+00
  1.113293e+01    2.517465e+00
  1.124406e+01    2.394893e+00
  1.135519e+01    2.445670e+00
  1.146632e+01    2.406514e+00
  1.157745e+01    2.383815e+00
  1.168858e+01    2.444662e+00
  1.179971e+01    2.422391e+00
  1.191084e+01    2.340688e+00
  1.202197e+01    2.339793e+00
  1.213309e+01    2.376042e+00
  1.224422e+01    2.295266e+00
  1.235535e+01    2.368098e+00
  1.246648e+01    2.370919e+00
  1.257761e+01    2.336493e+00
  1.268874e+01    2.479182e+00
  1.279987e+01    2.621716e+00
  1.291100e+01    3.307551e+00
  1.302213e+01    6.161826e+00
  1.313326e+01    1.408145e+01
  1.324438e+01    1.041169e+01
  1.335551e+01    4.150506e+00
  1.346664e+01    2.776122e+00
  1.357777e+01    2.388647e+00
  1.368890e+01    2.272147e+00
  1.380003e+01    2.139850e+00
  1.391116e+01    2.100159e+00
  1.402229e+01    2.035890e+00
  1.413342e+01    2.024068e+00
  1.424455e+01    2.001531e+00
  1.435568e+01    1.958245e+00
  1.446680e+01    1.966125e+00
  1.457793e+01    1.882302e+00
  1.468906e+01    1.918216e+00
  1.480019e+01    1.894981e+00
  1.491132e+01    1.952860e+00
  1.502245e+01    2.174156e+00
  1.513358e+01    3.461685e+00
  1.524471e+01    5.428486e+00
  1.535584e+01    3.522680e+00
  1.546697e+01    2.178914e+00
  1.557809e+01    1.887138e+00
  1.568922e+01    1.741300e+00
  1.580035e+01    1.710825e+00
  1.591148e+01    1.655052e+00
  1.602261e+01    1.584636e+00
  1.613374e+01    1.631790e+00
  1.624487e+01    1.584344e+00
  1.635600e+01    1.564864e+00
  1.646713e+01    1.536767e+00
  1.657826e+01    1.522864e+00
  1.668938e+01    1.486953e+00
  1.680051e+01    1.507065e+00
  1.691164e+01    1.474347e+00
  1.702277e+01    1.433246e+00
  1.713390e+01    1.429975e+00
  1.724503e+01    1.397787e+00
  1.735616e+01    1.401851e+00
  1.746729e+01    1.347284e+00
  1.757842e+01    1.353527e+00
  1.768955e+01    1.363283e+00
  1.780067e+01    1.339229e+00
  1.791180e+01    1.301961e+00
  1.802293e+01    1.355807e+00
  1.813406e+01    1.324439e+00
  1.824519e+01    1.276106e+00
  1.835632e+01    1.278106e+00
  1.846745e+01    1.244101e+00
  1.857858e+01    1.253045e+00
  1.868971e+01    1.233671e+00
  1.880084e+01    1.212614e+00
  1.891196e+01    1.216845e+00
  1.902309e+01    1.201648e+00
  1.913422e+01    1.175341e+00
  1.924535e+01    1.167849e+00
  1.935648e+01    1.188782e+00
  1.946761e+01    1.186772e+00
  1.957874e+01    1.137680e+00
  1.968987e+01    1.143267e+00
  1.980100e+01    1.141734e+00
  1.991213e+01    1.136050e+00
  2.002325e+01    1.118040e+00
  2.013438e+01    1.131714e+00
  2.024551e+01    1.115538e+00
  2.035664e+01    1.111149e+00
  2.046777e+01    1.104573e+00
  2.057890e+01    1.087513e+00
  2.069003e+01    1.085419e+00
  2.080116e+01    1.079456e+00
  2.091229e+01    1.085760e+00
  2.102342e+01    1.077605e+00
  2.113455e+01    1.100327e+00
  2.124567e+01    1.091832e+00
  2.135680e+01    1.114842e+00
  2.146793e+01    1.244663e+00
  2.157906e+01    1.473611e+00
  2.169019e+01    2.357985e+00
  2.180132e+01    5.542377e+00
  2.191245e+01    8.671547e+00
  2.202358e+01    3.419539e+00
  2.213471e+01    1.680179e+00
  2.224584e+01    1.238818e+00
  2.235696e+01    1.100581e+00
  2.246809e+01    1.046118e+00
  2.257922e+01    9.867297e-01
  2.269035e+01    9.545127e-01
  2.280148e+01    9.213476e-01
  2.291261e+01    8.893079e-01
  2.302374e+01    9.157543e-01
  2.313487e+01    8.641934e-01
  2.324600e+01    8.681598e-01
  2.335713e+01    8.521709e-01
  2.346825e+01    8.510261e-01
  2.357938e+01    8.379163e-01
  2.369051e+01    8.246635e-01
  2.380164e+01    8.098219e-01
  2.391277e+01    7.894331e-01
  2.402390e+01    7.929937e-01
  2.413503e+01    7.820681e-01
  2.424616e+01    7.793105e-01
  2.435729e+01    7.751255e-01
  2.446842e+01    8.047463e-01
  2.457954e+01    7.713416e-01
  2.469067e+01    7.885835e-01
  2.480180e+01    7.910419e-01
  2.491293e+01    7.774203e-01
  2.502406e+01    8.012794e-01
  2.513519e+01    8.116655e-01
  2.524632e+01    8.373291e-01
  2.535745e+01    8.983909e-01
  2.546858e+01    9.484133e-01
  2.557971e+01    1.059845e+00
  2.569083e+01    1.385136e+00
  2.580196e+01    2.667854e+00
  2.591309e+01    6.163292e+00
  2.602422e+01    5.362125e+00
  2.613535e+01    2.024181e+00
  2.624648e+01    1.259209e+00
  2.635761e+01    1.026249e+00
  2.646874e+01    9.067187e-01
  2.657987e+01    9.131689e-01
  2.669100e+01    8.648568e-01
  2.680212e+01    8.928500e-01
  2.691325e+01    9.334028e-01
  2.702438e+01    1.057608e+00
  2.713551e+01    1.612484e+00
  2.724664e+01    2.068818e+00
  2.735777e+01    1.208291e+00
  2.746890e+01    9.471741e-01
  2.758003e+01    8.312894e-01
  2.769116e+01    8.078640e-01
  2.780229e+01    8.046908e-01
  2.791342e+01    8.013818e-01
  2.802454e+01    8.045123e-01
  2.813567e+01    7.614396e-01
  2.824680e+01    7.733614e-01
  2.835793e+01    7.550587e-01
  2.846906e+01    7.564114e-01
  2.858019e+01    7.488498e-01
  2.869132e+01    7.597466e-01
  2.880245e+01    7.565284e-01
  2.891358e+01    7.259926e-01
  2.902471e+01    7.090231e-01
  2.913583e+01    7.093018e-01
  2.924696e+01    7.211351e-01
  2.935809e+01    7.185166e-01
  2.946922e+01    7.158059e-01
  2.958035e+01    7.335603e-01
  2.969148e+01    7.197617e-01
  2.980261e+01    7.107042e-01
  2.991374e+01    7.235519e-01
  3.002487e+01    7.328746e-01
  3.013600e+01    7.591674e-01
  3.024712e+01    7.339690e-01
  3.035825e+01    7.034934e-01
  3.046938e+01    7.131650e-01
  3.058051e+01    6.895803e-01
  3.069164e+01    7.110518e-01
  3.080277e+01    7.090183e-01
  3.091390e+01    7.151212e-01
  3.102503e+01    7.161614e-01
  3.113616e+01    7.183644e-01
  3.124729e+01    7.264665e-01
  3.135841e+01    7.318554e-01
  3.146954e+01    7.449025e-01
  3.158067e+01    8.179509e-01
  3.169180e+01    9.287333e-01
  3.180293e+01    1.400028e+00
  3.191406e+01    2.131822e+00
  3.202519e+01    1.250415e+00
  3.213632e+01    8.738097e-01
  3.224745e+01    7.832132e-01
  3.235858e+01    7.535136e-01
  3.246970e+01    7.201813e-01
  3.254908e+01    7.140395e-01