File: XRD/2024-07-27_002_Ru-CGO-ex_Activtation_ramp_000002_data_000075.dat
# == pyFAI calibration ==
# Distance Sample to Detector: 0.4 m
# PONI: 9.750e-02, 1.135e-01 m
# Rotations: -0.000175 0.000000 -0.000000 rad
#
# == Fit2d calibration ==
# Distance Sample-beamCenter: 400.000 mm
# Center: x=1514.000, y=1300.000 pix
# Tilt: 0.010 deg  TiltPlanRot: 0.010 deg
#
# Detector Detector	 Spline= None	 PixelSize= 7.500e-05, 7.500e-05 m
#    Detector has a mask: False
#    Detector has a dark current: False
#    detector has a flat field: False
#
# Wavelength: 6.888e-11 m
# Mask applied: user provided
# Dark current applied: False
# Flat field applied: False
# Polarization factor: 0.99
# Normalization factor: 1.0
# --> /home/myspot/data/2024_07_Rosario/Ru-CGO-ex/2024-07-27_002_Ru-CGO-ex_Activtation_ramp_000002_data_000075.dat
#       q_nm^-1             I
  2.003187e-02    0.000000e+00
  1.311609e-01    5.839701e-02
  2.422899e-01    5.900582e-02
  3.534189e-01    2.986650e-02
  4.645479e-01    2.961453e-02
  5.756770e-01    2.841973e-02
  6.868060e-01    3.615097e-02
  7.979350e-01    1.342388e-01
  9.090640e-01    5.404297e-01
  1.020193e+00    1.111476e+00
  1.131322e+00    1.604183e+00
  1.242451e+00    2.243794e+00
  1.353580e+00    2.516734e+00
  1.464709e+00    2.850322e+00
  1.575838e+00    2.994689e+00
  1.686967e+00    2.802326e+00
  1.798096e+00    2.905419e+00
  1.909225e+00    2.803944e+00
  2.020354e+00    2.751835e+00
  2.131483e+00    2.832652e+00
  2.242612e+00    2.883789e+00
  2.353741e+00    2.707504e+00
  2.464870e+00    2.736912e+00
  2.575999e+00    2.816056e+00
  2.687128e+00    2.778921e+00
  2.798257e+00    2.844734e+00
  2.909386e+00    2.831685e+00
  3.020515e+00    2.901186e+00
  3.131644e+00    2.855496e+00
  3.242773e+00    2.861503e+00
  3.353902e+00    2.925730e+00
  3.465031e+00    2.962679e+00
  3.576160e+00    3.044736e+00
  3.687289e+00    2.902636e+00
  3.798418e+00    2.992954e+00
  3.909547e+00    2.943336e+00
  4.020676e+00    3.090805e+00
  4.131806e+00    3.097574e+00
  4.242935e+00    3.014180e+00
  4.354064e+00    3.118317e+00
  4.465193e+00    2.966794e+00
  4.576322e+00    3.096024e+00
  4.687451e+00    3.075517e+00
  4.798580e+00    3.095545e+00
  4.909709e+00    3.139602e+00
  5.020838e+00    3.121033e+00
  5.131967e+00    3.177363e+00
  5.243096e+00    3.169558e+00
  5.354225e+00    3.128257e+00
  5.465354e+00    3.082478e+00
  5.576483e+00    3.097524e+00
  5.687612e+00    2.964602e+00
  5.798741e+00    3.095895e+00
  5.909870e+00    3.007091e+00
  6.020999e+00    3.004841e+00
  6.132128e+00    3.049643e+00
  6.243257e+00    3.104942e+00
  6.354386e+00    3.037846e+00
  6.465515e+00    2.974571e+00
  6.576644e+00    3.019653e+00
  6.687773e+00    3.058990e+00
  6.798902e+00    3.025249e+00
  6.910031e+00    2.898223e+00
  7.021160e+00    3.002158e+00
  7.132289e+00    3.003872e+00
  7.243418e+00    2.994354e+00
  7.354547e+00    2.966221e+00
  7.465676e+00    2.972725e+00
  7.576805e+00    2.930998e+00
  7.687934e+00    2.981950e+00
  7.799063e+00    2.872632e+00
  7.910192e+00    2.914529e+00
  8.021321e+00    2.983162e+00
  8.132450e+00    2.952839e+00
  8.243579e+00    2.910465e+00
  8.354708e+00    2.901480e+00
  8.465837e+00    2.961554e+00
  8.576966e+00    2.857401e+00
  8.688095e+00    2.857746e+00
  8.799224e+00    2.811085e+00
  8.910353e+00    2.862035e+00
  9.021482e+00    2.796839e+00
  9.132611e+00    2.751086e+00
  9.243740e+00    2.794801e+00
  9.354869e+00    2.718422e+00
  9.465998e+00    2.770714e+00
  9.577127e+00    2.765056e+00
  9.688256e+00    2.764271e+00
  9.799385e+00    2.801250e+00
  9.910514e+00    2.717470e+00
  1.002164e+01    2.652098e+00
  1.013277e+01    2.701015e+00
  1.024390e+01    2.636603e+00
  1.035503e+01    2.579421e+00
  1.046616e+01    2.586086e+00
  1.057729e+01    2.601614e+00
  1.068842e+01    2.543974e+00
  1.079955e+01    2.584062e+00
  1.091068e+01    2.476034e+00
  1.102180e+01    2.498186e+00
  1.113293e+01    2.482356e+00
  1.124406e+01    2.459300e+00
  1.135519e+01    2.361922e+00
  1.146632e+01    2.411718e+00
  1.157745e+01    2.420133e+00
  1.168858e+01    2.333018e+00
  1.179971e+01    2.355358e+00
  1.191084e+01    2.341373e+00
  1.202197e+01    2.355538e+00
  1.213309e+01    2.343845e+00
  1.224422e+01    2.334367e+00
  1.235535e+01    2.285836e+00
  1.246648e+01    2.301710e+00
  1.257761e+01    2.323102e+00
  1.268874e+01    2.475656e+00
  1.279987e+01    2.700140e+00
  1.291100e+01    3.264855e+00
  1.302213e+01    6.034731e+00
  1.313326e+01    1.493666e+01
  1.324438e+01    1.401436e+01
  1.335551e+01    4.900577e+00
  1.346664e+01    3.021019e+00
  1.357777e+01    2.471935e+00
  1.368890e+01    2.291108e+00
  1.380003e+01    2.192824e+00
  1.391116e+01    2.096653e+00
  1.402229e+01    2.046434e+00
  1.413342e+01    2.024092e+00
  1.424455e+01    1.957230e+00
  1.435568e+01    1.922146e+00
  1.446680e+01    1.943238e+00
  1.457793e+01    1.945433e+00
  1.468906e+01    1.924677e+00
  1.480019e+01    1.906805e+00
  1.491132e+01    1.951205e+00
  1.502245e+01    2.217751e+00
  1.513358e+01    3.390130e+00
  1.524471e+01    5.932714e+00
  1.535584e+01    4.341775e+00
  1.546697e+01    2.328033e+00
  1.557809e+01    1.921261e+00
  1.568922e+01    1.771496e+00
  1.580035e+01    1.690983e+00
  1.591148e+01    1.636185e+00
  1.602261e+01    1.580297e+00
  1.613374e+01    1.574972e+00
  1.624487e+01    1.559659e+00
  1.635600e+01    1.535874e+00
  1.646713e+01    1.523623e+00
  1.657826e+01    1.505427e+00
  1.668938e+01    1.473989e+00
  1.680051e+01    1.449334e+00
  1.691164e+01    1.441012e+00
  1.702277e+01    1.416141e+00
  1.713390e+01    1.412957e+00
  1.724503e+01    1.395331e+00
  1.735616e+01    1.407480e+00
  1.746729e+01    1.379269e+00
  1.757842e+01    1.351585e+00
  1.768955e+01    1.369313e+00
  1.780067e+01    1.323196e+00
  1.791180e+01    1.336296e+00
  1.802293e+01    1.292314e+00
  1.813406e+01    1.307407e+00
  1.824519e+01    1.293509e+00
  1.835632e+01    1.262623e+00
  1.846745e+01    1.244893e+00
  1.857858e+01    1.265430e+00
  1.868971e+01    1.216141e+00
  1.880084e+01    1.222474e+00
  1.891196e+01    1.193228e+00
  1.902309e+01    1.179083e+00
  1.913422e+01    1.195633e+00
  1.924535e+01    1.177597e+00
  1.935648e+01    1.169202e+00
  1.946761e+01    1.169301e+00
  1.957874e+01    1.139133e+00
  1.968987e+01    1.153842e+00
  1.980100e+01    1.109969e+00
  1.991213e+01    1.158691e+00
  2.002325e+01    1.144474e+00
  2.013438e+01    1.144341e+00
  2.024551e+01    1.087433e+00
  2.035664e+01    1.084425e+00
  2.046777e+01    1.106081e+00
  2.057890e+01    1.067066e+00
  2.069003e+01    1.115918e+00
  2.080116e+01    1.063293e+00
  2.091229e+01    1.106508e+00
  2.102342e+01    1.091949e+00
  2.113455e+01    1.086054e+00
  2.124567e+01    1.087874e+00
  2.135680e+01    1.159850e+00
  2.146793e+01    1.251994e+00
  2.157906e+01    1.416833e+00
  2.169019e+01    2.207449e+00
  2.180132e+01    5.245646e+00
  2.191245e+01    1.015643e+01
  2.202358e+01    4.804970e+00
  2.213471e+01    2.047586e+00
  2.224584e+01    1.398278e+00
  2.235696e+01    1.166564e+00
  2.246809e+01    1.049554e+00
  2.257922e+01    1.002675e+00
  2.269035e+01    9.795337e-01
  2.280148e+01    9.499280e-01
  2.291261e+01    8.979450e-01
  2.302374e+01    8.898029e-01
  2.313487e+01    9.062929e-01
  2.324600e+01    8.798797e-01
  2.335713e+01    8.623306e-01
  2.346825e+01    8.661456e-01
  2.357938e+01    8.320564e-01
  2.369051e+01    8.146616e-01
  2.380164e+01    8.210083e-01
  2.391277e+01    8.021724e-01
  2.402390e+01    8.094147e-01
  2.413503e+01    8.054000e-01
  2.424616e+01    7.761325e-01
  2.435729e+01    8.223939e-01
  2.446842e+01    8.035244e-01
  2.457954e+01    8.073161e-01
  2.469067e+01    8.041298e-01
  2.480180e+01    7.836000e-01
  2.491293e+01    7.995033e-01
  2.502406e+01    8.167492e-01
  2.513519e+01    8.148289e-01
  2.524632e+01    8.384640e-01
  2.535745e+01    8.759080e-01
  2.546858e+01    9.487855e-01
  2.557971e+01    1.058460e+00
  2.569083e+01    1.352026e+00
  2.580196e+01    2.378196e+00
  2.591309e+01    5.962701e+00
  2.602422e+01    7.690410e+00
  2.613535e+01    2.837827e+00
  2.624648e+01    1.447203e+00
  2.635761e+01    1.129821e+00
  2.646874e+01    9.815146e-01
  2.657987e+01    9.414348e-01
  2.669100e+01    9.157457e-01
  2.680212e+01    9.094907e-01
  2.691325e+01    9.331720e-01
  2.702438e+01    1.074056e+00
  2.713551e+01    1.535647e+00
  2.724664e+01    2.443117e+00
  2.735777e+01    1.509076e+00
  2.746890e+01    1.032251e+00
  2.758003e+01    8.833976e-01
  2.769116e+01    8.484534e-01
  2.780229e+01    8.158666e-01
  2.791342e+01    7.945719e-01
  2.802454e+01    7.894414e-01
  2.813567e+01    7.814593e-01
  2.824680e+01    7.783152e-01
  2.835793e+01    7.676693e-01
  2.846906e+01    7.498525e-01
  2.858019e+01    7.581288e-01
  2.869132e+01    7.744972e-01
  2.880245e+01    7.611448e-01
  2.891358e+01    7.524294e-01
  2.902471e+01    7.685341e-01
  2.913583e+01    7.377235e-01
  2.924696e+01    7.260957e-01
  2.935809e+01    7.499240e-01
  2.946922e+01    7.395589e-01
  2.958035e+01    7.221059e-01
  2.969148e+01    7.129607e-01
  2.980261e+01    7.269168e-01
  2.991374e+01    7.223522e-01
  3.002487e+01    7.421597e-01
  3.013600e+01    7.248697e-01
  3.024712e+01    7.122886e-01
  3.035825e+01    7.182870e-01
  3.046938e+01    7.041022e-01
  3.058051e+01    7.399659e-01
  3.069164e+01    7.220138e-01
  3.080277e+01    7.233124e-01
  3.091390e+01    6.931657e-01
  3.102503e+01    7.313635e-01
  3.113616e+01    7.249797e-01
  3.124729e+01    7.188517e-01
  3.135841e+01    7.558225e-01
  3.146954e+01    7.601464e-01
  3.158067e+01    8.006726e-01
  3.169180e+01    8.820518e-01
  3.180293e+01    1.298731e+00
  3.191406e+01    2.320519e+00
  3.202519e+01    1.722779e+00
  3.213632e+01    9.977762e-01
  3.224745e+01    8.302899e-01
  3.235858e+01    7.458795e-01
  3.246970e+01    7.498733e-01
  3.254908e+01    7.379172e-01