File: XRD/2024-07-27_002_Ru-CGO-ex_Activtation_ramp_000002_data_000029.dat
# == pyFAI calibration ==
# Distance Sample to Detector: 0.4 m
# PONI: 9.750e-02, 1.135e-01 m
# Rotations: -0.000175 0.000000 -0.000000 rad
#
# == Fit2d calibration ==
# Distance Sample-beamCenter: 400.000 mm
# Center: x=1514.000, y=1300.000 pix
# Tilt: 0.010 deg  TiltPlanRot: 0.010 deg
#
# Detector Detector	 Spline= None	 PixelSize= 7.500e-05, 7.500e-05 m
#    Detector has a mask: False
#    Detector has a dark current: False
#    detector has a flat field: False
#
# Wavelength: 6.888e-11 m
# Mask applied: user provided
# Dark current applied: False
# Flat field applied: False
# Polarization factor: 0.99
# Normalization factor: 1.0
# --> /home/myspot/data/2024_07_Rosario/Ru-CGO-ex/2024-07-27_002_Ru-CGO-ex_Activtation_ramp_000002_data_000029.dat
#       q_nm^-1             I
  2.003187e-02    0.000000e+00
  1.311609e-01    3.975108e-02
  2.422899e-01    1.553494e-02
  3.534189e-01    5.156026e-02
  4.645479e-01    2.425284e-02
  5.756770e-01    4.030384e-02
  6.868060e-01    2.126398e-02
  7.979350e-01    1.183824e-01
  9.090640e-01    5.789273e-01
  1.020193e+00    1.154556e+00
  1.131322e+00    1.420641e+00
  1.242451e+00    2.231295e+00
  1.353580e+00    2.775308e+00
  1.464709e+00    2.700852e+00
  1.575838e+00    2.988635e+00
  1.686967e+00    3.062067e+00
  1.798096e+00    2.797899e+00
  1.909225e+00    2.688457e+00
  2.020354e+00    2.874722e+00
  2.131483e+00    2.809648e+00
  2.242612e+00    2.752500e+00
  2.353741e+00    2.722679e+00
  2.464870e+00    2.842546e+00
  2.575999e+00    2.882767e+00
  2.687128e+00    2.831221e+00
  2.798257e+00    2.897551e+00
  2.909386e+00    2.873180e+00
  3.020515e+00    2.980227e+00
  3.131644e+00    2.931620e+00
  3.242773e+00    3.037930e+00
  3.353902e+00    2.972939e+00
  3.465031e+00    2.903877e+00
  3.576160e+00    2.963293e+00
  3.687289e+00    3.081709e+00
  3.798418e+00    3.009022e+00
  3.909547e+00    3.053451e+00
  4.020676e+00    2.974329e+00
  4.131806e+00    3.009888e+00
  4.242935e+00    3.090974e+00
  4.354064e+00    3.103348e+00
  4.465193e+00    3.130073e+00
  4.576322e+00    3.054870e+00
  4.687451e+00    3.157304e+00
  4.798580e+00    3.205068e+00
  4.909709e+00    3.087536e+00
  5.020838e+00    3.154499e+00
  5.131967e+00    3.144013e+00
  5.243096e+00    3.046074e+00
  5.354225e+00    3.197581e+00
  5.465354e+00    3.089334e+00
  5.576483e+00    3.153675e+00
  5.687612e+00    3.107945e+00
  5.798741e+00    3.135547e+00
  5.909870e+00    3.142462e+00
  6.020999e+00    2.946345e+00
  6.132128e+00    3.068686e+00
  6.243257e+00    3.073383e+00
  6.354386e+00    3.101628e+00
  6.465515e+00    3.043942e+00
  6.576644e+00    3.043179e+00
  6.687773e+00    3.103159e+00
  6.798902e+00    2.983349e+00
  6.910031e+00    3.023459e+00
  7.021160e+00    3.013446e+00
  7.132289e+00    2.990717e+00
  7.243418e+00    3.071266e+00
  7.354547e+00    3.014912e+00
  7.465676e+00    3.030969e+00
  7.576805e+00    2.938643e+00
  7.687934e+00    2.924281e+00
  7.799063e+00    2.957223e+00
  7.910192e+00    2.923552e+00
  8.021321e+00    2.870423e+00
  8.132450e+00    2.899389e+00
  8.243579e+00    2.969851e+00
  8.354708e+00    2.883500e+00
  8.465837e+00    2.904195e+00
  8.576966e+00    2.934138e+00
  8.688095e+00    2.865153e+00
  8.799224e+00    2.864852e+00
  8.910353e+00    2.892376e+00
  9.021482e+00    2.904983e+00
  9.132611e+00    2.923200e+00
  9.243740e+00    2.860932e+00
  9.354869e+00    2.752905e+00
  9.465998e+00    2.746578e+00
  9.577127e+00    2.779350e+00
  9.688256e+00    2.776518e+00
  9.799385e+00    2.709585e+00
  9.910514e+00    2.696499e+00
  1.002164e+01    2.713438e+00
  1.013277e+01    2.664510e+00
  1.024390e+01    2.653267e+00
  1.035503e+01    2.619683e+00
  1.046616e+01    2.647870e+00
  1.057729e+01    2.616443e+00
  1.068842e+01    2.585848e+00
  1.079955e+01    2.549365e+00
  1.091068e+01    2.524229e+00
  1.102180e+01    2.506156e+00
  1.113293e+01    2.548609e+00
  1.124406e+01    2.469949e+00
  1.135519e+01    2.463679e+00
  1.146632e+01    2.437710e+00
  1.157745e+01    2.440384e+00
  1.168858e+01    2.384022e+00
  1.179971e+01    2.349358e+00
  1.191084e+01    2.338434e+00
  1.202197e+01    2.360885e+00
  1.213309e+01    2.369577e+00
  1.224422e+01    2.290137e+00
  1.235535e+01    2.391405e+00
  1.246648e+01    2.354833e+00
  1.257761e+01    2.409140e+00
  1.268874e+01    2.482433e+00
  1.279987e+01    2.683583e+00
  1.291100e+01    3.351039e+00
  1.302213e+01    5.891674e+00
  1.313326e+01    1.506184e+01
  1.324438e+01    1.597385e+01
  1.335551e+01    5.384789e+00
  1.346664e+01    3.143495e+00
  1.357777e+01    2.627386e+00
  1.368890e+01    2.313852e+00
  1.380003e+01    2.222585e+00
  1.391116e+01    2.100542e+00
  1.402229e+01    2.087955e+00
  1.413342e+01    2.036101e+00
  1.424455e+01    2.048979e+00
  1.435568e+01    1.972639e+00
  1.446680e+01    1.952168e+00
  1.457793e+01    1.954546e+00
  1.468906e+01    1.930470e+00
  1.480019e+01    1.923811e+00
  1.491132e+01    1.977865e+00
  1.502245e+01    2.202896e+00
  1.513358e+01    3.287020e+00
  1.524471e+01    6.030336e+00
  1.535584e+01    4.911299e+00
  1.546697e+01    2.494177e+00
  1.557809e+01    1.939727e+00
  1.568922e+01    1.772888e+00
  1.580035e+01    1.711408e+00
  1.591148e+01    1.649680e+00
  1.602261e+01    1.625508e+00
  1.613374e+01    1.578795e+00
  1.624487e+01    1.576134e+00
  1.635600e+01    1.552782e+00
  1.646713e+01    1.554367e+00
  1.657826e+01    1.540907e+00
  1.668938e+01    1.491872e+00
  1.680051e+01    1.477856e+00
  1.691164e+01    1.497008e+00
  1.702277e+01    1.448001e+00
  1.713390e+01    1.419588e+00
  1.724503e+01    1.424791e+00
  1.735616e+01    1.369468e+00
  1.746729e+01    1.394938e+00
  1.757842e+01    1.348405e+00
  1.768955e+01    1.339063e+00
  1.780067e+01    1.324978e+00
  1.791180e+01    1.342901e+00
  1.802293e+01    1.321199e+00
  1.813406e+01    1.333372e+00
  1.824519e+01    1.293631e+00
  1.835632e+01    1.254378e+00
  1.846745e+01    1.255708e+00
  1.857858e+01    1.237532e+00
  1.868971e+01    1.254669e+00
  1.880084e+01    1.218796e+00
  1.891196e+01    1.216511e+00
  1.902309e+01    1.240033e+00
  1.913422e+01    1.193533e+00
  1.924535e+01    1.204040e+00
  1.935648e+01    1.179649e+00
  1.946761e+01    1.177274e+00
  1.957874e+01    1.154001e+00
  1.968987e+01    1.163854e+00
  1.980100e+01    1.140275e+00
  1.991213e+01    1.166520e+00
  2.002325e+01    1.142640e+00
  2.013438e+01    1.126832e+00
  2.024551e+01    1.126805e+00
  2.035664e+01    1.110478e+00
  2.046777e+01    1.115855e+00
  2.057890e+01    1.108032e+00
  2.069003e+01    1.077242e+00
  2.080116e+01    1.083135e+00
  2.091229e+01    1.117767e+00
  2.102342e+01    1.096964e+00
  2.113455e+01    1.114935e+00
  2.124567e+01    1.118369e+00
  2.135680e+01    1.141865e+00
  2.146793e+01    1.239052e+00
  2.157906e+01    1.456189e+00
  2.169019e+01    2.098709e+00
  2.180132e+01    4.865937e+00
  2.191245e+01    1.052915e+01
  2.202358e+01    5.945842e+00
  2.213471e+01    2.320726e+00
  2.224584e+01    1.467105e+00
  2.235696e+01    1.201160e+00
  2.246809e+01    1.093888e+00
  2.257922e+01    1.034130e+00
  2.269035e+01    9.906732e-01
  2.280148e+01    9.409459e-01
  2.291261e+01    9.337808e-01
  2.302374e+01    9.198084e-01
  2.313487e+01    8.806214e-01
  2.324600e+01    8.615926e-01
  2.335713e+01    8.730845e-01
  2.346825e+01    8.755748e-01
  2.357938e+01    8.579763e-01
  2.369051e+01    8.459224e-01
  2.380164e+01    8.152541e-01
  2.391277e+01    8.203827e-01
  2.402390e+01    7.959073e-01
  2.413503e+01    7.992397e-01
  2.424616e+01    7.887307e-01
  2.435729e+01    8.104717e-01
  2.446842e+01    8.104768e-01
  2.457954e+01    7.923170e-01
  2.469067e+01    8.092951e-01
  2.480180e+01    8.098413e-01
  2.491293e+01    8.165244e-01
  2.502406e+01    8.084577e-01
  2.513519e+01    8.444999e-01
  2.524632e+01    8.675916e-01
  2.535745e+01    9.248720e-01
  2.546858e+01    9.720306e-01
  2.557971e+01    1.068012e+00
  2.569083e+01    1.322310e+00
  2.580196e+01    2.218303e+00
  2.591309e+01    5.569624e+00
  2.602422e+01    8.830313e+00
  2.613535e+01    3.450273e+00
  2.624648e+01    1.659338e+00
  2.635761e+01    1.177932e+00
  2.646874e+01    1.006107e+00
  2.657987e+01    9.736540e-01
  2.669100e+01    9.372425e-01
  2.680212e+01    9.469855e-01
  2.691325e+01    9.231637e-01
  2.702438e+01    1.012780e+00
  2.713551e+01    1.459878e+00
  2.724664e+01    2.526554e+00
  2.735777e+01    1.733688e+00
  2.746890e+01    1.094712e+00
  2.758003e+01    9.325533e-01
  2.769116e+01    8.729793e-01
  2.780229e+01    8.436629e-01
  2.791342e+01    8.017511e-01
  2.802454e+01    8.232760e-01
  2.813567e+01    7.941360e-01
  2.824680e+01    8.189062e-01
  2.835793e+01    7.873741e-01
  2.846906e+01    7.697308e-01
  2.858019e+01    7.540482e-01
  2.869132e+01    7.848913e-01
  2.880245e+01    7.583023e-01
  2.891358e+01    7.810622e-01
  2.902471e+01    7.539036e-01
  2.913583e+01    7.474477e-01
  2.924696e+01    7.478499e-01
  2.935809e+01    7.423490e-01
  2.946922e+01    7.451698e-01
  2.958035e+01    7.443779e-01
  2.969148e+01    7.416101e-01
  2.980261e+01    7.343774e-01
  2.991374e+01    7.315334e-01
  3.002487e+01    7.623505e-01
  3.013600e+01    7.196819e-01
  3.024712e+01    7.079243e-01
  3.035825e+01    7.313582e-01
  3.046938e+01    7.386692e-01
  3.058051e+01    7.194812e-01
  3.069164e+01    7.272692e-01
  3.080277e+01    7.060707e-01
  3.091390e+01    7.374033e-01
  3.102503e+01    7.250531e-01
  3.113616e+01    7.243525e-01
  3.124729e+01    7.376999e-01
  3.135841e+01    7.566766e-01
  3.146954e+01    7.885504e-01
  3.158067e+01    7.978557e-01
  3.169180e+01    9.169228e-01
  3.180293e+01    1.227670e+00
  3.191406e+01    2.295899e+00
  3.202519e+01    2.118082e+00
  3.213632e+01    1.135862e+00
  3.224745e+01    8.830804e-01
  3.235858e+01    7.877472e-01
  3.246970e+01    7.452507e-01
  3.254908e+01    7.395216e-01