File: XRD/2024-07-27_002_Ru-CGO-ex_Activtation_ramp_000002_data_000166.dat
# == pyFAI calibration ==
# Distance Sample to Detector: 0.4 m
# PONI: 9.750e-02, 1.135e-01 m
# Rotations: -0.000175 0.000000 -0.000000 rad
#
# == Fit2d calibration ==
# Distance Sample-beamCenter: 400.000 mm
# Center: x=1514.000, y=1300.000 pix
# Tilt: 0.010 deg  TiltPlanRot: 0.010 deg
#
# Detector Detector	 Spline= None	 PixelSize= 7.500e-05, 7.500e-05 m
#    Detector has a mask: False
#    Detector has a dark current: False
#    detector has a flat field: False
#
# Wavelength: 6.888e-11 m
# Mask applied: user provided
# Dark current applied: False
# Flat field applied: False
# Polarization factor: 0.99
# Normalization factor: 1.0
# --> /home/myspot/data/2024_07_Rosario/Ru-CGO-ex/2024-07-27_002_Ru-CGO-ex_Activtation_ramp_000002_data_000166.dat
#       q_nm^-1             I
  2.003187e-02    0.000000e+00
  1.311609e-01    2.632579e-02
  2.422899e-01    3.960438e-02
  3.534189e-01    4.470247e-02
  4.645479e-01    8.413304e-02
  5.756770e-01    1.771162e-02
  6.868060e-01    8.183810e-02
  7.979350e-01    1.429288e-01
  9.090640e-01    5.196450e-01
  1.020193e+00    1.109069e+00
  1.131322e+00    1.402992e+00
  1.242451e+00    2.159412e+00
  1.353580e+00    2.446433e+00
  1.464709e+00    2.900352e+00
  1.575838e+00    2.841181e+00
  1.686967e+00    2.823351e+00
  1.798096e+00    2.623012e+00
  1.909225e+00    2.741151e+00
  2.020354e+00    2.775185e+00
  2.131483e+00    2.710048e+00
  2.242612e+00    2.771642e+00
  2.353741e+00    2.691563e+00
  2.464870e+00    2.731641e+00
  2.575999e+00    2.766278e+00
  2.687128e+00    2.914041e+00
  2.798257e+00    2.852139e+00
  2.909386e+00    2.855738e+00
  3.020515e+00    2.848384e+00
  3.131644e+00    2.889073e+00
  3.242773e+00    2.914999e+00
  3.353902e+00    2.947442e+00
  3.465031e+00    2.924114e+00
  3.576160e+00    3.009246e+00
  3.687289e+00    3.040937e+00
  3.798418e+00    3.024014e+00
  3.909547e+00    3.079685e+00
  4.020676e+00    2.986931e+00
  4.131806e+00    3.106289e+00
  4.242935e+00    3.121265e+00
  4.354064e+00    3.042064e+00
  4.465193e+00    3.046101e+00
  4.576322e+00    3.110469e+00
  4.687451e+00    3.060047e+00
  4.798580e+00    3.117640e+00
  4.909709e+00    3.113465e+00
  5.020838e+00    3.058168e+00
  5.131967e+00    3.126729e+00
  5.243096e+00    3.132453e+00
  5.354225e+00    3.152154e+00
  5.465354e+00    3.147854e+00
  5.576483e+00    3.148913e+00
  5.687612e+00    3.106769e+00
  5.798741e+00    3.073725e+00
  5.909870e+00    3.022068e+00
  6.020999e+00    3.002012e+00
  6.132128e+00    3.071593e+00
  6.243257e+00    3.048032e+00
  6.354386e+00    3.005164e+00
  6.465515e+00    3.062597e+00
  6.576644e+00    3.021440e+00
  6.687773e+00    3.018790e+00
  6.798902e+00    3.092898e+00
  6.910031e+00    3.079244e+00
  7.021160e+00    3.042619e+00
  7.132289e+00    3.039799e+00
  7.243418e+00    3.012030e+00
  7.354547e+00    2.956342e+00
  7.465676e+00    3.012116e+00
  7.576805e+00    2.933981e+00
  7.687934e+00    2.943735e+00
  7.799063e+00    2.992513e+00
  7.910192e+00    2.916029e+00
  8.021321e+00    3.007140e+00
  8.132450e+00    2.888507e+00
  8.243579e+00    2.935645e+00
  8.354708e+00    2.932310e+00
  8.465837e+00    2.909135e+00
  8.576966e+00    2.894933e+00
  8.688095e+00    2.832688e+00
  8.799224e+00    2.817009e+00
  8.910353e+00    2.828387e+00
  9.021482e+00    2.820711e+00
  9.132611e+00    2.771415e+00
  9.243740e+00    2.800636e+00
  9.354869e+00    2.780857e+00
  9.465998e+00    2.768006e+00
  9.577127e+00    2.772926e+00
  9.688256e+00    2.708949e+00
  9.799385e+00    2.673771e+00
  9.910514e+00    2.710846e+00
  1.002164e+01    2.709789e+00
  1.013277e+01    2.695537e+00
  1.024390e+01    2.652416e+00
  1.035503e+01    2.642309e+00
  1.046616e+01    2.621954e+00
  1.057729e+01    2.609277e+00
  1.068842e+01    2.541922e+00
  1.079955e+01    2.519286e+00
  1.091068e+01    2.557546e+00
  1.102180e+01    2.458780e+00
  1.113293e+01    2.470491e+00
  1.124406e+01    2.482061e+00
  1.135519e+01    2.422809e+00
  1.146632e+01    2.403665e+00
  1.157745e+01    2.426785e+00
  1.168858e+01    2.382663e+00
  1.179971e+01    2.369763e+00
  1.191084e+01    2.306239e+00
  1.202197e+01    2.332331e+00
  1.213309e+01    2.333285e+00
  1.224422e+01    2.350103e+00
  1.235535e+01    2.380431e+00
  1.246648e+01    2.348027e+00
  1.257761e+01    2.365973e+00
  1.268874e+01    2.445250e+00
  1.279987e+01    2.690828e+00
  1.291100e+01    3.314401e+00
  1.302213e+01    6.247058e+00
  1.313326e+01    1.432367e+01
  1.324438e+01    1.073937e+01
  1.335551e+01    4.137111e+00
  1.346664e+01    2.798559e+00
  1.357777e+01    2.428050e+00
  1.368890e+01    2.234190e+00
  1.380003e+01    2.119322e+00
  1.391116e+01    2.078664e+00
  1.402229e+01    2.021444e+00
  1.413342e+01    1.999420e+00
  1.424455e+01    1.991157e+00
  1.435568e+01    1.955793e+00
  1.446680e+01    1.907852e+00
  1.457793e+01    1.938911e+00
  1.468906e+01    1.931339e+00
  1.480019e+01    1.897218e+00
  1.491132e+01    1.955516e+00
  1.502245e+01    2.215236e+00
  1.513358e+01    3.481660e+00
  1.524471e+01    5.571153e+00
  1.535584e+01    3.573119e+00
  1.546697e+01    2.157677e+00
  1.557809e+01    1.853231e+00
  1.568922e+01    1.762094e+00
  1.580035e+01    1.701565e+00
  1.591148e+01    1.623023e+00
  1.602261e+01    1.588166e+00
  1.613374e+01    1.585447e+00
  1.624487e+01    1.595769e+00
  1.635600e+01    1.532838e+00
  1.646713e+01    1.529167e+00
  1.657826e+01    1.517500e+00
  1.668938e+01    1.519196e+00
  1.680051e+01    1.457692e+00
  1.691164e+01    1.438170e+00
  1.702277e+01    1.434610e+00
  1.713390e+01    1.421692e+00
  1.724503e+01    1.421299e+00
  1.735616e+01    1.379482e+00
  1.746729e+01    1.348921e+00
  1.757842e+01    1.333723e+00
  1.768955e+01    1.381033e+00
  1.780067e+01    1.318873e+00
  1.791180e+01    1.321893e+00
  1.802293e+01    1.294142e+00
  1.813406e+01    1.309466e+00
  1.824519e+01    1.282010e+00
  1.835632e+01    1.281152e+00
  1.846745e+01    1.251605e+00
  1.857858e+01    1.236182e+00
  1.868971e+01    1.228394e+00
  1.880084e+01    1.214687e+00
  1.891196e+01    1.222907e+00
  1.902309e+01    1.202883e+00
  1.913422e+01    1.179229e+00
  1.924535e+01    1.169802e+00
  1.935648e+01    1.183409e+00
  1.946761e+01    1.182722e+00
  1.957874e+01    1.165431e+00
  1.968987e+01    1.136271e+00
  1.980100e+01    1.131221e+00
  1.991213e+01    1.128063e+00
  2.002325e+01    1.109104e+00
  2.013438e+01    1.105452e+00
  2.024551e+01    1.131434e+00
  2.035664e+01    1.109855e+00
  2.046777e+01    1.103220e+00
  2.057890e+01    1.080740e+00
  2.069003e+01    1.088560e+00
  2.080116e+01    1.081896e+00
  2.091229e+01    1.054809e+00
  2.102342e+01    1.079428e+00
  2.113455e+01    1.078122e+00
  2.124567e+01    1.095237e+00
  2.135680e+01    1.151356e+00
  2.146793e+01    1.233997e+00
  2.157906e+01    1.479190e+00
  2.169019e+01    2.332423e+00
  2.180132e+01    5.558577e+00
  2.191245e+01    8.867425e+00
  2.202358e+01    3.549974e+00
  2.213471e+01    1.738841e+00
  2.224584e+01    1.272395e+00
  2.235696e+01    1.098512e+00
  2.246809e+01    1.028948e+00
  2.257922e+01    1.000759e+00
  2.269035e+01    9.472623e-01
  2.280148e+01    9.142883e-01
  2.291261e+01    8.947448e-01
  2.302374e+01    8.962238e-01
  2.313487e+01    8.764901e-01
  2.324600e+01    8.843461e-01
  2.335713e+01    8.655472e-01
  2.346825e+01    8.363425e-01
  2.357938e+01    8.387091e-01
  2.369051e+01    8.199164e-01
  2.380164e+01    8.130071e-01
  2.391277e+01    8.099531e-01
  2.402390e+01    7.946353e-01
  2.413503e+01    7.906538e-01
  2.424616e+01    7.759462e-01
  2.435729e+01    7.903051e-01
  2.446842e+01    7.701747e-01
  2.457954e+01    8.071322e-01
  2.469067e+01    7.794792e-01
  2.480180e+01    7.915360e-01
  2.491293e+01    8.047766e-01
  2.502406e+01    8.012431e-01
  2.513519e+01    7.945189e-01
  2.524632e+01    8.471975e-01
  2.535745e+01    8.905908e-01
  2.546858e+01    9.358473e-01
  2.557971e+01    1.071776e+00
  2.569083e+01    1.394501e+00
  2.580196e+01    2.675915e+00
  2.591309e+01    6.256739e+00
  2.602422e+01    5.493618e+00
  2.613535e+01    2.081222e+00
  2.624648e+01    1.257113e+00
  2.635761e+01    1.020068e+00
  2.646874e+01    9.045348e-01
  2.657987e+01    8.823684e-01
  2.669100e+01    8.812057e-01
  2.680212e+01    8.711057e-01
  2.691325e+01    9.093471e-01
  2.702438e+01    1.081637e+00
  2.713551e+01    1.620572e+00
  2.724664e+01    2.081482e+00
  2.735777e+01    1.232245e+00
  2.746890e+01    9.621726e-01
  2.758003e+01    8.460186e-01
  2.769116e+01    8.273230e-01
  2.780229e+01    8.260984e-01
  2.791342e+01    8.111873e-01
  2.802454e+01    7.787746e-01
  2.813567e+01    7.880168e-01
  2.824680e+01    7.503836e-01
  2.835793e+01    7.575870e-01
  2.846906e+01    7.588267e-01
  2.858019e+01    7.764429e-01
  2.869132e+01    7.392923e-01
  2.880245e+01    7.508161e-01
  2.891358e+01    7.301024e-01
  2.902471e+01    7.386810e-01
  2.913583e+01    7.210640e-01
  2.924696e+01    7.284582e-01
  2.935809e+01    7.159300e-01
  2.946922e+01    7.313242e-01
  2.958035e+01    7.244706e-01
  2.969148e+01    7.331499e-01
  2.980261e+01    7.174381e-01
  2.991374e+01    7.201056e-01
  3.002487e+01    7.332538e-01
  3.013600e+01    7.090603e-01
  3.024712e+01    7.057505e-01
  3.035825e+01    6.986663e-01
  3.046938e+01    7.114104e-01
  3.058051e+01    7.191623e-01
  3.069164e+01    7.194918e-01
  3.080277e+01    6.754246e-01
  3.091390e+01    7.194777e-01
  3.102503e+01    7.193042e-01
  3.113616e+01    7.001491e-01
  3.124729e+01    7.202653e-01
  3.135841e+01    7.290111e-01
  3.146954e+01    7.487040e-01
  3.158067e+01    7.894628e-01
  3.169180e+01    9.562409e-01
  3.180293e+01    1.429851e+00
  3.191406e+01    2.156947e+00
  3.202519e+01    1.301591e+00
  3.213632e+01    8.776859e-01
  3.224745e+01    7.891686e-01
  3.235858e+01    7.369851e-01
  3.246970e+01    7.118834e-01
  3.254908e+01    7.219604e-01