File: XRD/2024-07-27_002_Ru-CGO-ex_Activtation_ramp_000002_data_000016.dat
# == pyFAI calibration ==
# Distance Sample to Detector: 0.4 m
# PONI: 9.750e-02, 1.135e-01 m
# Rotations: -0.000175 0.000000 -0.000000 rad
#
# == Fit2d calibration ==
# Distance Sample-beamCenter: 400.000 mm
# Center: x=1514.000, y=1300.000 pix
# Tilt: 0.010 deg  TiltPlanRot: 0.010 deg
#
# Detector Detector	 Spline= None	 PixelSize= 7.500e-05, 7.500e-05 m
#    Detector has a mask: False
#    Detector has a dark current: False
#    detector has a flat field: False
#
# Wavelength: 6.888e-11 m
# Mask applied: user provided
# Dark current applied: False
# Flat field applied: False
# Polarization factor: 0.99
# Normalization factor: 1.0
# --> /home/myspot/data/2024_07_Rosario/Ru-CGO-ex/2024-07-27_002_Ru-CGO-ex_Activtation_ramp_000002_data_000016.dat
#       q_nm^-1             I
  2.003187e-02    0.000000e+00
  1.311609e-01    1.239762e-01
  2.422899e-01    2.208284e-02
  3.534189e-01    1.206304e-02
  4.645479e-01    5.009856e-02
  5.756770e-01    4.536398e-02
  6.868060e-01    5.842619e-02
  7.979350e-01    1.181897e-01
  9.090640e-01    6.392504e-01
  1.020193e+00    1.158201e+00
  1.131322e+00    1.389480e+00
  1.242451e+00    2.260834e+00
  1.353580e+00    2.528060e+00
  1.464709e+00    2.925781e+00
  1.575838e+00    2.997133e+00
  1.686967e+00    2.980209e+00
  1.798096e+00    2.823346e+00
  1.909225e+00    2.754064e+00
  2.020354e+00    2.967618e+00
  2.131483e+00    2.748830e+00
  2.242612e+00    2.928803e+00
  2.353741e+00    2.865261e+00
  2.464870e+00    2.884528e+00
  2.575999e+00    2.886422e+00
  2.687128e+00    2.755982e+00
  2.798257e+00    2.957284e+00
  2.909386e+00    2.884509e+00
  3.020515e+00    2.940471e+00
  3.131644e+00    2.899190e+00
  3.242773e+00    2.969919e+00
  3.353902e+00    2.982939e+00
  3.465031e+00    2.947136e+00
  3.576160e+00    3.063018e+00
  3.687289e+00    3.018601e+00
  3.798418e+00    2.991853e+00
  3.909547e+00    2.980609e+00
  4.020676e+00    2.950142e+00
  4.131806e+00    3.104890e+00
  4.242935e+00    3.069560e+00
  4.354064e+00    3.054507e+00
  4.465193e+00    3.017641e+00
  4.576322e+00    3.056427e+00
  4.687451e+00    3.101648e+00
  4.798580e+00    3.062663e+00
  4.909709e+00    3.168395e+00
  5.020838e+00    3.169787e+00
  5.131967e+00    3.215627e+00
  5.243096e+00    3.207762e+00
  5.354225e+00    3.073730e+00
  5.465354e+00    3.138399e+00
  5.576483e+00    3.137398e+00
  5.687612e+00    3.114565e+00
  5.798741e+00    3.032113e+00
  5.909870e+00    3.081903e+00
  6.020999e+00    3.024316e+00
  6.132128e+00    3.070101e+00
  6.243257e+00    3.078379e+00
  6.354386e+00    3.145452e+00
  6.465515e+00    3.092960e+00
  6.576644e+00    3.041043e+00
  6.687773e+00    3.084747e+00
  6.798902e+00    3.083791e+00
  6.910031e+00    3.023153e+00
  7.021160e+00    3.044150e+00
  7.132289e+00    3.001054e+00
  7.243418e+00    2.980580e+00
  7.354547e+00    3.034420e+00
  7.465676e+00    2.987285e+00
  7.576805e+00    2.970627e+00
  7.687934e+00    3.035742e+00
  7.799063e+00    2.974891e+00
  7.910192e+00    2.898990e+00
  8.021321e+00    2.911373e+00
  8.132450e+00    2.919902e+00
  8.243579e+00    2.923220e+00
  8.354708e+00    2.956300e+00
  8.465837e+00    2.896703e+00
  8.576966e+00    2.865414e+00
  8.688095e+00    2.933622e+00
  8.799224e+00    2.841118e+00
  8.910353e+00    2.892814e+00
  9.021482e+00    2.831021e+00
  9.132611e+00    2.783137e+00
  9.243740e+00    2.884838e+00
  9.354869e+00    2.791387e+00
  9.465998e+00    2.777028e+00
  9.577127e+00    2.766044e+00
  9.688256e+00    2.767299e+00
  9.799385e+00    2.750755e+00
  9.910514e+00    2.690982e+00
  1.002164e+01    2.718922e+00
  1.013277e+01    2.690989e+00
  1.024390e+01    2.670958e+00
  1.035503e+01    2.663746e+00
  1.046616e+01    2.655748e+00
  1.057729e+01    2.589143e+00
  1.068842e+01    2.554250e+00
  1.079955e+01    2.548205e+00
  1.091068e+01    2.558073e+00
  1.102180e+01    2.520512e+00
  1.113293e+01    2.478862e+00
  1.124406e+01    2.485370e+00
  1.135519e+01    2.447315e+00
  1.146632e+01    2.451277e+00
  1.157745e+01    2.426049e+00
  1.168858e+01    2.402620e+00
  1.179971e+01    2.357479e+00
  1.191084e+01    2.353125e+00
  1.202197e+01    2.393197e+00
  1.213309e+01    2.366070e+00
  1.224422e+01    2.331966e+00
  1.235535e+01    2.305785e+00
  1.246648e+01    2.391638e+00
  1.257761e+01    2.408109e+00
  1.268874e+01    2.506386e+00
  1.279987e+01    2.661023e+00
  1.291100e+01    3.262147e+00
  1.302213e+01    5.843397e+00
  1.313326e+01    1.502733e+01
  1.324438e+01    1.646351e+01
  1.335551e+01    5.515116e+00
  1.346664e+01    3.201793e+00
  1.357777e+01    2.586758e+00
  1.368890e+01    2.343518e+00
  1.380003e+01    2.229348e+00
  1.391116e+01    2.151318e+00
  1.402229e+01    2.092371e+00
  1.413342e+01    2.020753e+00
  1.424455e+01    1.995005e+00
  1.435568e+01    1.982342e+00
  1.446680e+01    1.928875e+00
  1.457793e+01    1.914937e+00
  1.468906e+01    1.937657e+00
  1.480019e+01    1.968536e+00
  1.491132e+01    1.959533e+00
  1.502245e+01    2.221579e+00
  1.513358e+01    3.176646e+00
  1.524471e+01    6.007783e+00
  1.535584e+01    5.083827e+00
  1.546697e+01    2.527330e+00
  1.557809e+01    1.990291e+00
  1.568922e+01    1.796795e+00
  1.580035e+01    1.737503e+00
  1.591148e+01    1.693127e+00
  1.602261e+01    1.660974e+00
  1.613374e+01    1.619857e+00
  1.624487e+01    1.608112e+00
  1.635600e+01    1.553171e+00
  1.646713e+01    1.515988e+00
  1.657826e+01    1.536213e+00
  1.668938e+01    1.472691e+00
  1.680051e+01    1.470997e+00
  1.691164e+01    1.478989e+00
  1.702277e+01    1.467029e+00
  1.713390e+01    1.411279e+00
  1.724503e+01    1.426669e+00
  1.735616e+01    1.394991e+00
  1.746729e+01    1.386297e+00
  1.757842e+01    1.357020e+00
  1.768955e+01    1.350638e+00
  1.780067e+01    1.346486e+00
  1.791180e+01    1.343011e+00
  1.802293e+01    1.335622e+00
  1.813406e+01    1.316912e+00
  1.824519e+01    1.299852e+00
  1.835632e+01    1.274509e+00
  1.846745e+01    1.276494e+00
  1.857858e+01    1.256983e+00
  1.868971e+01    1.239901e+00
  1.880084e+01    1.260290e+00
  1.891196e+01    1.216380e+00
  1.902309e+01    1.235236e+00
  1.913422e+01    1.212932e+00
  1.924535e+01    1.225307e+00
  1.935648e+01    1.207136e+00
  1.946761e+01    1.204335e+00
  1.957874e+01    1.170448e+00
  1.968987e+01    1.170703e+00
  1.980100e+01    1.143700e+00
  1.991213e+01    1.141099e+00
  2.002325e+01    1.144273e+00
  2.013438e+01    1.127025e+00
  2.024551e+01    1.088520e+00
  2.035664e+01    1.090823e+00
  2.046777e+01    1.106920e+00
  2.057890e+01    1.107715e+00
  2.069003e+01    1.114058e+00
  2.080116e+01    1.101809e+00
  2.091229e+01    1.102433e+00
  2.102342e+01    1.118419e+00
  2.113455e+01    1.112300e+00
  2.124567e+01    1.125986e+00
  2.135680e+01    1.148696e+00
  2.146793e+01    1.234600e+00
  2.157906e+01    1.429043e+00
  2.169019e+01    2.104664e+00
  2.180132e+01    4.841521e+00
  2.191245e+01    1.047945e+01
  2.202358e+01    6.149575e+00
  2.213471e+01    2.367053e+00
  2.224584e+01    1.518584e+00
  2.235696e+01    1.225017e+00
  2.246809e+01    1.102795e+00
  2.257922e+01    1.012912e+00
  2.269035e+01    1.000106e+00
  2.280148e+01    9.715021e-01
  2.291261e+01    9.358319e-01
  2.302374e+01    9.158800e-01
  2.313487e+01    8.982966e-01
  2.324600e+01    8.899367e-01
  2.335713e+01    8.678152e-01
  2.346825e+01    8.717087e-01
  2.357938e+01    8.589364e-01
  2.369051e+01    8.397102e-01
  2.380164e+01    8.209993e-01
  2.391277e+01    8.039894e-01
  2.402390e+01    7.862366e-01
  2.413503e+01    8.007547e-01
  2.424616e+01    8.035547e-01
  2.435729e+01    8.258918e-01
  2.446842e+01    8.139269e-01
  2.457954e+01    8.142796e-01
  2.469067e+01    8.315593e-01
  2.480180e+01    8.181083e-01
  2.491293e+01    8.056892e-01
  2.502406e+01    8.119880e-01
  2.513519e+01    8.246248e-01
  2.524632e+01    8.595321e-01
  2.535745e+01    9.149054e-01
  2.546858e+01    9.293241e-01
  2.557971e+01    1.072166e+00
  2.569083e+01    1.295524e+00
  2.580196e+01    2.191982e+00
  2.591309e+01    5.519644e+00
  2.602422e+01    9.006223e+00
  2.613535e+01    3.644681e+00
  2.624648e+01    1.717533e+00
  2.635761e+01    1.199108e+00
  2.646874e+01    1.037936e+00
  2.657987e+01    9.696982e-01
  2.669100e+01    9.604604e-01
  2.680212e+01    9.169217e-01
  2.691325e+01    9.427471e-01
  2.702438e+01    1.052801e+00
  2.713551e+01    1.449654e+00
  2.724664e+01    2.539272e+00
  2.735777e+01    1.819633e+00
  2.746890e+01    1.110938e+00
  2.758003e+01    9.180691e-01
  2.769116e+01    8.863307e-01
  2.780229e+01    8.372800e-01
  2.791342e+01    8.085465e-01
  2.802454e+01    8.231084e-01
  2.813567e+01    7.981770e-01
  2.824680e+01    7.938859e-01
  2.835793e+01    7.916589e-01
  2.846906e+01    7.911325e-01
  2.858019e+01    7.791694e-01
  2.869132e+01    7.595509e-01
  2.880245e+01    7.894403e-01
  2.891358e+01    7.536762e-01
  2.902471e+01    7.460635e-01
  2.913583e+01    7.825789e-01
  2.924696e+01    7.624396e-01
  2.935809e+01    7.371362e-01
  2.946922e+01    7.394354e-01
  2.958035e+01    7.304281e-01
  2.969148e+01    7.445071e-01
  2.980261e+01    7.346882e-01
  2.991374e+01    7.597737e-01
  3.002487e+01    7.590212e-01
  3.013600e+01    7.296491e-01
  3.024712e+01    7.312929e-01
  3.035825e+01    7.299853e-01
  3.046938e+01    7.227121e-01
  3.058051e+01    7.451859e-01
  3.069164e+01    7.222435e-01
  3.080277e+01    7.196304e-01
  3.091390e+01    7.379270e-01
  3.102503e+01    7.577404e-01
  3.113616e+01    7.510427e-01
  3.124729e+01    7.489536e-01
  3.135841e+01    7.505322e-01
  3.146954e+01    7.978236e-01
  3.158067e+01    7.965127e-01
  3.169180e+01    9.018276e-01
  3.180293e+01    1.170052e+00
  3.191406e+01    2.198709e+00
  3.202519e+01    2.144634e+00
  3.213632e+01    1.158132e+00
  3.224745e+01    8.762862e-01
  3.235858e+01    7.804140e-01
  3.246970e+01    7.617062e-01
  3.254908e+01    7.452522e-01