File: XRD/2024-07-27_002_Ru-CGO-ex_Activtation_ramp_000002_data_000138.dat
# == pyFAI calibration ==
# Distance Sample to Detector: 0.4 m
# PONI: 9.750e-02, 1.135e-01 m
# Rotations: -0.000175 0.000000 -0.000000 rad
#
# == Fit2d calibration ==
# Distance Sample-beamCenter: 400.000 mm
# Center: x=1514.000, y=1300.000 pix
# Tilt: 0.010 deg  TiltPlanRot: 0.010 deg
#
# Detector Detector	 Spline= None	 PixelSize= 7.500e-05, 7.500e-05 m
#    Detector has a mask: False
#    Detector has a dark current: False
#    detector has a flat field: False
#
# Wavelength: 6.888e-11 m
# Mask applied: user provided
# Dark current applied: False
# Flat field applied: False
# Polarization factor: 0.99
# Normalization factor: 1.0
# --> /home/myspot/data/2024_07_Rosario/Ru-CGO-ex/2024-07-27_002_Ru-CGO-ex_Activtation_ramp_000002_data_000138.dat
#       q_nm^-1             I
  2.003187e-02    7.712624e-02
  1.311609e-01    6.047145e-02
  2.422899e-01    7.841557e-02
  3.534189e-01    5.883696e-02
  4.645479e-01    5.594723e-02
  5.756770e-01    1.787578e-02
  6.868060e-01    3.758280e-02
  7.979350e-01    1.285034e-01
  9.090640e-01    5.200474e-01
  1.020193e+00    1.191393e+00
  1.131322e+00    1.552764e+00
  1.242451e+00    2.128832e+00
  1.353580e+00    2.423581e+00
  1.464709e+00    2.733071e+00
  1.575838e+00    2.873158e+00
  1.686967e+00    2.780164e+00
  1.798096e+00    2.737302e+00
  1.909225e+00    2.717978e+00
  2.020354e+00    2.742197e+00
  2.131483e+00    2.715991e+00
  2.242612e+00    2.672328e+00
  2.353741e+00    2.708127e+00
  2.464870e+00    2.791854e+00
  2.575999e+00    2.777590e+00
  2.687128e+00    2.782329e+00
  2.798257e+00    2.883855e+00
  2.909386e+00    2.793800e+00
  3.020515e+00    2.784359e+00
  3.131644e+00    2.890846e+00
  3.242773e+00    2.839895e+00
  3.353902e+00    2.926995e+00
  3.465031e+00    3.026552e+00
  3.576160e+00    2.941452e+00
  3.687289e+00    2.933635e+00
  3.798418e+00    2.824560e+00
  3.909547e+00    3.021505e+00
  4.020676e+00    3.033655e+00
  4.131806e+00    2.992310e+00
  4.242935e+00    2.981017e+00
  4.354064e+00    3.154773e+00
  4.465193e+00    3.075740e+00
  4.576322e+00    3.040081e+00
  4.687451e+00    3.072146e+00
  4.798580e+00    3.045523e+00
  4.909709e+00    3.098720e+00
  5.020838e+00    3.111075e+00
  5.131967e+00    3.099991e+00
  5.243096e+00    3.129063e+00
  5.354225e+00    3.078859e+00
  5.465354e+00    3.126335e+00
  5.576483e+00    3.069896e+00
  5.687612e+00    3.048319e+00
  5.798741e+00    3.011752e+00
  5.909870e+00    2.948070e+00
  6.020999e+00    2.987101e+00
  6.132128e+00    3.002019e+00
  6.243257e+00    3.090079e+00
  6.354386e+00    3.106111e+00
  6.465515e+00    3.017186e+00
  6.576644e+00    2.910628e+00
  6.687773e+00    3.032303e+00
  6.798902e+00    3.014529e+00
  6.910031e+00    2.956920e+00
  7.021160e+00    3.002578e+00
  7.132289e+00    2.958488e+00
  7.243418e+00    3.003112e+00
  7.354547e+00    2.890067e+00
  7.465676e+00    2.950324e+00
  7.576805e+00    2.973610e+00
  7.687934e+00    2.965078e+00
  7.799063e+00    2.997857e+00
  7.910192e+00    2.916218e+00
  8.021321e+00    2.903310e+00
  8.132450e+00    2.898000e+00
  8.243579e+00    2.902074e+00
  8.354708e+00    2.852892e+00
  8.465837e+00    2.863339e+00
  8.576966e+00    2.880819e+00
  8.688095e+00    2.871753e+00
  8.799224e+00    2.775675e+00
  8.910353e+00    2.786554e+00
  9.021482e+00    2.790498e+00
  9.132611e+00    2.743961e+00
  9.243740e+00    2.817913e+00
  9.354869e+00    2.747249e+00
  9.465998e+00    2.674162e+00
  9.577127e+00    2.702399e+00
  9.688256e+00    2.746580e+00
  9.799385e+00    2.640089e+00
  9.910514e+00    2.687415e+00
  1.002164e+01    2.653346e+00
  1.013277e+01    2.577601e+00
  1.024390e+01    2.602574e+00
  1.035503e+01    2.571064e+00
  1.046616e+01    2.596778e+00
  1.057729e+01    2.549947e+00
  1.068842e+01    2.510935e+00
  1.079955e+01    2.553207e+00
  1.091068e+01    2.561376e+00
  1.102180e+01    2.467704e+00
  1.113293e+01    2.481337e+00
  1.124406e+01    2.417958e+00
  1.135519e+01    2.414606e+00
  1.146632e+01    2.350811e+00
  1.157745e+01    2.396451e+00
  1.168858e+01    2.348463e+00
  1.179971e+01    2.331841e+00
  1.191084e+01    2.347902e+00
  1.202197e+01    2.311672e+00
  1.213309e+01    2.248806e+00
  1.224422e+01    2.280416e+00
  1.235535e+01    2.289420e+00
  1.246648e+01    2.354871e+00
  1.257761e+01    2.370973e+00
  1.268874e+01    2.429050e+00
  1.279987e+01    2.589209e+00
  1.291100e+01    3.275670e+00
  1.302213e+01    6.138153e+00
  1.313326e+01    1.451060e+01
  1.324438e+01    1.165291e+01
  1.335551e+01    4.313904e+00
  1.346664e+01    2.864140e+00
  1.357777e+01    2.395746e+00
  1.368890e+01    2.243997e+00
  1.380003e+01    2.140490e+00
  1.391116e+01    2.101917e+00
  1.402229e+01    2.013788e+00
  1.413342e+01    2.039693e+00
  1.424455e+01    1.975486e+00
  1.435568e+01    1.911193e+00
  1.446680e+01    1.940465e+00
  1.457793e+01    1.917237e+00
  1.468906e+01    1.881661e+00
  1.480019e+01    1.908750e+00
  1.491132e+01    1.962546e+00
  1.502245e+01    2.191449e+00
  1.513358e+01    3.372259e+00
  1.524471e+01    5.575349e+00
  1.535584e+01    3.732158e+00
  1.546697e+01    2.186702e+00
  1.557809e+01    1.842766e+00
  1.568922e+01    1.730926e+00
  1.580035e+01    1.663099e+00
  1.591148e+01    1.604634e+00
  1.602261e+01    1.589396e+00
  1.613374e+01    1.558633e+00
  1.624487e+01    1.583490e+00
  1.635600e+01    1.524140e+00
  1.646713e+01    1.507025e+00
  1.657826e+01    1.507063e+00
  1.668938e+01    1.454940e+00
  1.680051e+01    1.451184e+00
  1.691164e+01    1.424389e+00
  1.702277e+01    1.411203e+00
  1.713390e+01    1.406345e+00
  1.724503e+01    1.403282e+00
  1.735616e+01    1.362905e+00
  1.746729e+01    1.355124e+00
  1.757842e+01    1.350740e+00
  1.768955e+01    1.320825e+00
  1.780067e+01    1.296852e+00
  1.791180e+01    1.313689e+00
  1.802293e+01    1.306424e+00
  1.813406e+01    1.273580e+00
  1.824519e+01    1.273254e+00
  1.835632e+01    1.265610e+00
  1.846745e+01    1.262634e+00
  1.857858e+01    1.253020e+00
  1.868971e+01    1.215001e+00
  1.880084e+01    1.199848e+00
  1.891196e+01    1.202590e+00
  1.902309e+01    1.177499e+00
  1.913422e+01    1.166635e+00
  1.924535e+01    1.180431e+00
  1.935648e+01    1.156822e+00
  1.946761e+01    1.150530e+00
  1.957874e+01    1.169965e+00
  1.968987e+01    1.134354e+00
  1.980100e+01    1.131279e+00
  1.991213e+01    1.106378e+00
  2.002325e+01    1.120595e+00
  2.013438e+01    1.117747e+00
  2.024551e+01    1.077631e+00
  2.035664e+01    1.096654e+00
  2.046777e+01    1.084099e+00
  2.057890e+01    1.070987e+00
  2.069003e+01    1.078202e+00
  2.080116e+01    1.081380e+00
  2.091229e+01    1.094752e+00
  2.102342e+01    1.065202e+00
  2.113455e+01    1.084208e+00
  2.124567e+01    1.093960e+00
  2.135680e+01    1.146560e+00
  2.146793e+01    1.246599e+00
  2.157906e+01    1.447351e+00
  2.169019e+01    2.303695e+00
  2.180132e+01    5.477510e+00
  2.191245e+01    9.350794e+00
  2.202358e+01    3.863442e+00
  2.213471e+01    1.807415e+00
  2.224584e+01    1.306244e+00
  2.235696e+01    1.103437e+00
  2.246809e+01    1.056140e+00
  2.257922e+01    1.008214e+00
  2.269035e+01    9.442102e-01
  2.280148e+01    9.287844e-01
  2.291261e+01    9.067186e-01
  2.302374e+01    8.813908e-01
  2.313487e+01    8.862873e-01
  2.324600e+01    8.622227e-01
  2.335713e+01    8.460409e-01
  2.346825e+01    8.299635e-01
  2.357938e+01    8.262695e-01
  2.369051e+01    8.277162e-01
  2.380164e+01    8.295872e-01
  2.391277e+01    7.887799e-01
  2.402390e+01    7.808190e-01
  2.413503e+01    7.821868e-01
  2.424616e+01    7.757692e-01
  2.435729e+01    7.765375e-01
  2.446842e+01    7.892537e-01
  2.457954e+01    7.896367e-01
  2.469067e+01    7.809552e-01
  2.480180e+01    7.846979e-01
  2.491293e+01    7.805030e-01
  2.502406e+01    8.073850e-01
  2.513519e+01    7.915962e-01
  2.524632e+01    8.435006e-01
  2.535745e+01    8.530530e-01
  2.546858e+01    9.331415e-01
  2.557971e+01    1.046889e+00
  2.569083e+01    1.382067e+00
  2.580196e+01    2.581801e+00
  2.591309e+01    6.212557e+00
  2.602422e+01    6.052681e+00
  2.613535e+01    2.277188e+00
  2.624648e+01    1.332128e+00
  2.635761e+01    1.046198e+00
  2.646874e+01    9.415974e-01
  2.657987e+01    9.166551e-01
  2.669100e+01    8.899568e-01
  2.680212e+01    8.870000e-01
  2.691325e+01    9.136716e-01
  2.702438e+01    1.063062e+00
  2.713551e+01    1.597548e+00
  2.724664e+01    2.230324e+00
  2.735777e+01    1.306455e+00
  2.746890e+01    9.436144e-01
  2.758003e+01    8.496954e-01
  2.769116e+01    8.139854e-01
  2.780229e+01    7.938132e-01
  2.791342e+01    8.060750e-01
  2.802454e+01    7.664498e-01
  2.813567e+01    7.765623e-01
  2.824680e+01    7.382045e-01
  2.835793e+01    7.528692e-01
  2.846906e+01    7.640105e-01
  2.858019e+01    7.304940e-01
  2.869132e+01    7.252864e-01
  2.880245e+01    7.553731e-01
  2.891358e+01    7.319961e-01
  2.902471e+01    7.364679e-01
  2.913583e+01    7.503209e-01
  2.924696e+01    7.430711e-01
  2.935809e+01    7.168862e-01
  2.946922e+01    7.182102e-01
  2.958035e+01    7.096690e-01
  2.969148e+01    7.215822e-01
  2.980261e+01    6.986986e-01
  2.991374e+01    7.151157e-01
  3.002487e+01    7.334820e-01
  3.013600e+01    6.913263e-01
  3.024712e+01    7.095138e-01
  3.035825e+01    6.869041e-01
  3.046938e+01    7.159307e-01
  3.058051e+01    7.203456e-01
  3.069164e+01    7.011657e-01
  3.080277e+01    6.953149e-01
  3.091390e+01    6.955464e-01
  3.102503e+01    7.029907e-01
  3.113616e+01    7.252516e-01
  3.124729e+01    7.162709e-01
  3.135841e+01    7.214790e-01
  3.146954e+01    7.394681e-01
  3.158067e+01    7.903326e-01
  3.169180e+01    9.086614e-01
  3.180293e+01    1.376285e+00
  3.191406e+01    2.221398e+00
  3.202519e+01    1.443815e+00
  3.213632e+01    8.948434e-01
  3.224745e+01    7.936102e-01
  3.235858e+01    7.227856e-01
  3.246970e+01    7.485487e-01
  3.254908e+01    7.171421e-01