File: XRD/2024-07-27_002_Ru-CGO-ex_Activtation_ramp_000002_data_000072.dat
# == pyFAI calibration ==
# Distance Sample to Detector: 0.4 m
# PONI: 9.750e-02, 1.135e-01 m
# Rotations: -0.000175 0.000000 -0.000000 rad
#
# == Fit2d calibration ==
# Distance Sample-beamCenter: 400.000 mm
# Center: x=1514.000, y=1300.000 pix
# Tilt: 0.010 deg  TiltPlanRot: 0.010 deg
#
# Detector Detector	 Spline= None	 PixelSize= 7.500e-05, 7.500e-05 m
#    Detector has a mask: False
#    Detector has a dark current: False
#    detector has a flat field: False
#
# Wavelength: 6.888e-11 m
# Mask applied: user provided
# Dark current applied: False
# Flat field applied: False
# Polarization factor: 0.99
# Normalization factor: 1.0
# --> /home/myspot/data/2024_07_Rosario/Ru-CGO-ex/2024-07-27_002_Ru-CGO-ex_Activtation_ramp_000002_data_000072.dat
#       q_nm^-1             I
  2.003187e-02    0.000000e+00
  1.311609e-01    5.182818e-03
  2.422899e-01    4.022874e-02
  3.534189e-01    7.467283e-03
  4.645479e-01    2.307790e-02
  5.756770e-01    2.502766e-02
  6.868060e-01    2.237741e-02
  7.979350e-01    1.538952e-01
  9.090640e-01    5.184903e-01
  1.020193e+00    1.094660e+00
  1.131322e+00    1.470427e+00
  1.242451e+00    2.396229e+00
  1.353580e+00    2.561386e+00
  1.464709e+00    2.645827e+00
  1.575838e+00    3.068162e+00
  1.686967e+00    2.982768e+00
  1.798096e+00    2.845804e+00
  1.909225e+00    2.647684e+00
  2.020354e+00    2.737814e+00
  2.131483e+00    2.801629e+00
  2.242612e+00    2.707249e+00
  2.353741e+00    2.752783e+00
  2.464870e+00    2.859188e+00
  2.575999e+00    2.710027e+00
  2.687128e+00    2.917495e+00
  2.798257e+00    2.769543e+00
  2.909386e+00    2.909842e+00
  3.020515e+00    2.819897e+00
  3.131644e+00    2.818591e+00
  3.242773e+00    2.916759e+00
  3.353902e+00    2.845636e+00
  3.465031e+00    2.960273e+00
  3.576160e+00    2.872673e+00
  3.687289e+00    3.027210e+00
  3.798418e+00    3.065198e+00
  3.909547e+00    3.094915e+00
  4.020676e+00    2.970485e+00
  4.131806e+00    3.030825e+00
  4.242935e+00    3.053485e+00
  4.354064e+00    3.072237e+00
  4.465193e+00    3.077879e+00
  4.576322e+00    3.048825e+00
  4.687451e+00    3.062721e+00
  4.798580e+00    3.071756e+00
  4.909709e+00    3.095390e+00
  5.020838e+00    3.124027e+00
  5.131967e+00    3.030320e+00
  5.243096e+00    3.098475e+00
  5.354225e+00    3.088005e+00
  5.465354e+00    3.072949e+00
  5.576483e+00    3.097193e+00
  5.687612e+00    3.013847e+00
  5.798741e+00    3.068854e+00
  5.909870e+00    3.016670e+00
  6.020999e+00    3.009605e+00
  6.132128e+00    3.013064e+00
  6.243257e+00    2.971109e+00
  6.354386e+00    3.013004e+00
  6.465515e+00    3.053547e+00
  6.576644e+00    3.004416e+00
  6.687773e+00    3.034255e+00
  6.798902e+00    3.047384e+00
  6.910031e+00    3.041287e+00
  7.021160e+00    3.029157e+00
  7.132289e+00    3.009442e+00
  7.243418e+00    3.033276e+00
  7.354547e+00    3.002173e+00
  7.465676e+00    2.930613e+00
  7.576805e+00    3.000097e+00
  7.687934e+00    2.938698e+00
  7.799063e+00    2.931185e+00
  7.910192e+00    2.922700e+00
  8.021321e+00    2.875718e+00
  8.132450e+00    2.928913e+00
  8.243579e+00    2.961920e+00
  8.354708e+00    2.895588e+00
  8.465837e+00    2.829344e+00
  8.576966e+00    2.847100e+00
  8.688095e+00    2.796591e+00
  8.799224e+00    2.836269e+00
  8.910353e+00    2.868989e+00
  9.021482e+00    2.843159e+00
  9.132611e+00    2.812235e+00
  9.243740e+00    2.749430e+00
  9.354869e+00    2.717445e+00
  9.465998e+00    2.760866e+00
  9.577127e+00    2.723294e+00
  9.688256e+00    2.770645e+00
  9.799385e+00    2.690223e+00
  9.910514e+00    2.711934e+00
  1.002164e+01    2.636129e+00
  1.013277e+01    2.606935e+00
  1.024390e+01    2.599596e+00
  1.035503e+01    2.605819e+00
  1.046616e+01    2.574596e+00
  1.057729e+01    2.606846e+00
  1.068842e+01    2.545391e+00
  1.079955e+01    2.515645e+00
  1.091068e+01    2.455397e+00
  1.102180e+01    2.517140e+00
  1.113293e+01    2.495914e+00
  1.124406e+01    2.477700e+00
  1.135519e+01    2.410949e+00
  1.146632e+01    2.374434e+00
  1.157745e+01    2.378785e+00
  1.168858e+01    2.385480e+00
  1.179971e+01    2.392650e+00
  1.191084e+01    2.334700e+00
  1.202197e+01    2.351297e+00
  1.213309e+01    2.306258e+00
  1.224422e+01    2.317477e+00
  1.235535e+01    2.297566e+00
  1.246648e+01    2.345616e+00
  1.257761e+01    2.388892e+00
  1.268874e+01    2.423939e+00
  1.279987e+01    2.684697e+00
  1.291100e+01    3.213063e+00
  1.302213e+01    5.951060e+00
  1.313326e+01    1.483392e+01
  1.324438e+01    1.409381e+01
  1.335551e+01    4.895126e+00
  1.346664e+01    2.982240e+00
  1.357777e+01    2.483841e+00
  1.368890e+01    2.287305e+00
  1.380003e+01    2.178495e+00
  1.391116e+01    2.134269e+00
  1.402229e+01    2.061355e+00
  1.413342e+01    2.033852e+00
  1.424455e+01    1.954554e+00
  1.435568e+01    1.896829e+00
  1.446680e+01    1.939399e+00
  1.457793e+01    1.894572e+00
  1.468906e+01    1.880748e+00
  1.480019e+01    1.931138e+00
  1.491132e+01    2.019638e+00
  1.502245e+01    2.207880e+00
  1.513358e+01    3.250024e+00
  1.524471e+01    5.830773e+00
  1.535584e+01    4.440163e+00
  1.546697e+01    2.326417e+00
  1.557809e+01    1.896067e+00
  1.568922e+01    1.747330e+00
  1.580035e+01    1.666068e+00
  1.591148e+01    1.659310e+00
  1.602261e+01    1.657787e+00
  1.613374e+01    1.578087e+00
  1.624487e+01    1.540271e+00
  1.635600e+01    1.525532e+00
  1.646713e+01    1.520734e+00
  1.657826e+01    1.499252e+00
  1.668938e+01    1.477425e+00
  1.680051e+01    1.468704e+00
  1.691164e+01    1.449094e+00
  1.702277e+01    1.423980e+00
  1.713390e+01    1.408437e+00
  1.724503e+01    1.375742e+00
  1.735616e+01    1.365886e+00
  1.746729e+01    1.354359e+00
  1.757842e+01    1.359652e+00
  1.768955e+01    1.334300e+00
  1.780067e+01    1.309040e+00
  1.791180e+01    1.307937e+00
  1.802293e+01    1.286431e+00
  1.813406e+01    1.287708e+00
  1.824519e+01    1.288823e+00
  1.835632e+01    1.272438e+00
  1.846745e+01    1.238410e+00
  1.857858e+01    1.239295e+00
  1.868971e+01    1.239296e+00
  1.880084e+01    1.199212e+00
  1.891196e+01    1.226853e+00
  1.902309e+01    1.198336e+00
  1.913422e+01    1.196802e+00
  1.924535e+01    1.171558e+00
  1.935648e+01    1.184741e+00
  1.946761e+01    1.174053e+00
  1.957874e+01    1.181127e+00
  1.968987e+01    1.144568e+00
  1.980100e+01    1.132136e+00
  1.991213e+01    1.146252e+00
  2.002325e+01    1.100534e+00
  2.013438e+01    1.103786e+00
  2.024551e+01    1.099806e+00
  2.035664e+01    1.107579e+00
  2.046777e+01    1.059286e+00
  2.057890e+01    1.086272e+00
  2.069003e+01    1.098164e+00
  2.080116e+01    1.085262e+00
  2.091229e+01    1.054249e+00
  2.102342e+01    1.077126e+00
  2.113455e+01    1.047896e+00
  2.124567e+01    1.105096e+00
  2.135680e+01    1.172786e+00
  2.146793e+01    1.240470e+00
  2.157906e+01    1.454835e+00
  2.169019e+01    2.171117e+00
  2.180132e+01    5.092311e+00
  2.191245e+01    1.024884e+01
  2.202358e+01    4.993080e+00
  2.213471e+01    2.077764e+00
  2.224584e+01    1.364370e+00
  2.235696e+01    1.161838e+00
  2.246809e+01    1.055918e+00
  2.257922e+01    1.010101e+00
  2.269035e+01    9.639411e-01
  2.280148e+01    9.399989e-01
  2.291261e+01    9.158235e-01
  2.302374e+01    9.107928e-01
  2.313487e+01    8.919040e-01
  2.324600e+01    8.538731e-01
  2.335713e+01    8.809243e-01
  2.346825e+01    8.641548e-01
  2.357938e+01    8.481707e-01
  2.369051e+01    8.335623e-01
  2.380164e+01    8.066190e-01
  2.391277e+01    8.136401e-01
  2.402390e+01    7.744281e-01
  2.413503e+01    7.807753e-01
  2.424616e+01    7.830901e-01
  2.435729e+01    7.988153e-01
  2.446842e+01    8.126854e-01
  2.457954e+01    8.240265e-01
  2.469067e+01    7.909067e-01
  2.480180e+01    7.755306e-01
  2.491293e+01    8.000818e-01
  2.502406e+01    8.121504e-01
  2.513519e+01    8.196548e-01
  2.524632e+01    8.144669e-01
  2.535745e+01    8.794105e-01
  2.546858e+01    9.406506e-01
  2.557971e+01    1.066541e+00
  2.569083e+01    1.351697e+00
  2.580196e+01    2.380789e+00
  2.591309e+01    5.863847e+00
  2.602422e+01    7.767815e+00
  2.613535e+01    2.903446e+00
  2.624648e+01    1.516430e+00
  2.635761e+01    1.122568e+00
  2.646874e+01    9.938604e-01
  2.657987e+01    9.384567e-01
  2.669100e+01    9.039230e-01
  2.680212e+01    9.099176e-01
  2.691325e+01    9.337510e-01
  2.702438e+01    1.045577e+00
  2.713551e+01    1.523230e+00
  2.724664e+01    2.440390e+00
  2.735777e+01    1.523026e+00
  2.746890e+01    1.018566e+00
  2.758003e+01    8.868439e-01
  2.769116e+01    8.473327e-01
  2.780229e+01    8.291616e-01
  2.791342e+01    8.044699e-01
  2.802454e+01    7.912508e-01
  2.813567e+01    7.795199e-01
  2.824680e+01    7.778136e-01
  2.835793e+01    7.854977e-01
  2.846906e+01    7.551216e-01
  2.858019e+01    7.596042e-01
  2.869132e+01    7.632816e-01
  2.880245e+01    7.693536e-01
  2.891358e+01    7.485961e-01
  2.902471e+01    7.055151e-01
  2.913583e+01    7.463006e-01
  2.924696e+01    7.341892e-01
  2.935809e+01    7.348091e-01
  2.946922e+01    7.177675e-01
  2.958035e+01    7.318564e-01
  2.969148e+01    7.274284e-01
  2.980261e+01    7.126867e-01
  2.991374e+01    7.122848e-01
  3.002487e+01    7.372344e-01
  3.013600e+01    7.119280e-01
  3.024712e+01    6.993124e-01
  3.035825e+01    7.233661e-01
  3.046938e+01    7.245755e-01
  3.058051e+01    7.230706e-01
  3.069164e+01    7.086217e-01
  3.080277e+01    7.078316e-01
  3.091390e+01    7.026661e-01
  3.102503e+01    7.129853e-01
  3.113616e+01    7.250128e-01
  3.124729e+01    7.186425e-01
  3.135841e+01    7.558915e-01
  3.146954e+01    7.328659e-01
  3.158067e+01    8.057024e-01
  3.169180e+01    8.972663e-01
  3.180293e+01    1.269325e+00
  3.191406e+01    2.255850e+00
  3.202519e+01    1.791637e+00
  3.213632e+01    1.013644e+00
  3.224745e+01    7.941821e-01
  3.235858e+01    7.601334e-01
  3.246970e+01    7.585286e-01
  3.254908e+01    7.417731e-01