File: XRD/2024-07-27_002_Ru-CGO-ex_Activtation_ramp_000002_data_000087.dat
# == pyFAI calibration ==
# Distance Sample to Detector: 0.4 m
# PONI: 9.750e-02, 1.135e-01 m
# Rotations: -0.000175 0.000000 -0.000000 rad
#
# == Fit2d calibration ==
# Distance Sample-beamCenter: 400.000 mm
# Center: x=1514.000, y=1300.000 pix
# Tilt: 0.010 deg  TiltPlanRot: 0.010 deg
#
# Detector Detector	 Spline= None	 PixelSize= 7.500e-05, 7.500e-05 m
#    Detector has a mask: False
#    Detector has a dark current: False
#    detector has a flat field: False
#
# Wavelength: 6.888e-11 m
# Mask applied: user provided
# Dark current applied: False
# Flat field applied: False
# Polarization factor: 0.99
# Normalization factor: 1.0
# --> /home/myspot/data/2024_07_Rosario/Ru-CGO-ex/2024-07-27_002_Ru-CGO-ex_Activtation_ramp_000002_data_000087.dat
#       q_nm^-1             I
  2.003187e-02    0.000000e+00
  1.311609e-01    5.237907e-02
  2.422899e-01    3.637737e-02
  3.534189e-01    2.905421e-02
  4.645479e-01    3.027703e-02
  5.756770e-01    2.952802e-02
  6.868060e-01    3.040478e-02
  7.979350e-01    1.231471e-01
  9.090640e-01    5.918837e-01
  1.020193e+00    1.152200e+00
  1.131322e+00    1.429324e+00
  1.242451e+00    2.149706e+00
  1.353580e+00    2.575598e+00
  1.464709e+00    2.847903e+00
  1.575838e+00    3.033260e+00
  1.686967e+00    2.792755e+00
  1.798096e+00    2.799920e+00
  1.909225e+00    2.763918e+00
  2.020354e+00    2.642559e+00
  2.131483e+00    2.752025e+00
  2.242612e+00    2.692271e+00
  2.353741e+00    2.782991e+00
  2.464870e+00    2.823349e+00
  2.575999e+00    2.814327e+00
  2.687128e+00    2.808315e+00
  2.798257e+00    2.767826e+00
  2.909386e+00    2.794683e+00
  3.020515e+00    2.856775e+00
  3.131644e+00    2.964789e+00
  3.242773e+00    2.979411e+00
  3.353902e+00    2.945581e+00
  3.465031e+00    2.764863e+00
  3.576160e+00    2.886440e+00
  3.687289e+00    3.015309e+00
  3.798418e+00    2.895901e+00
  3.909547e+00    2.996627e+00
  4.020676e+00    2.965156e+00
  4.131806e+00    2.952916e+00
  4.242935e+00    2.999160e+00
  4.354064e+00    2.979362e+00
  4.465193e+00    2.982153e+00
  4.576322e+00    3.022494e+00
  4.687451e+00    3.048037e+00
  4.798580e+00    3.036606e+00
  4.909709e+00    2.996906e+00
  5.020838e+00    3.086245e+00
  5.131967e+00    3.155358e+00
  5.243096e+00    3.117214e+00
  5.354225e+00    3.016247e+00
  5.465354e+00    3.023089e+00
  5.576483e+00    3.068040e+00
  5.687612e+00    3.020784e+00
  5.798741e+00    3.038236e+00
  5.909870e+00    2.943470e+00
  6.020999e+00    2.960948e+00
  6.132128e+00    3.033553e+00
  6.243257e+00    3.026521e+00
  6.354386e+00    3.049368e+00
  6.465515e+00    2.950350e+00
  6.576644e+00    2.983327e+00
  6.687773e+00    3.041476e+00
  6.798902e+00    2.953782e+00
  6.910031e+00    2.937474e+00
  7.021160e+00    2.938623e+00
  7.132289e+00    2.930996e+00
  7.243418e+00    2.976741e+00
  7.354547e+00    2.967273e+00
  7.465676e+00    3.014692e+00
  7.576805e+00    2.950758e+00
  7.687934e+00    2.882772e+00
  7.799063e+00    2.841031e+00
  7.910192e+00    2.904138e+00
  8.021321e+00    2.921001e+00
  8.132450e+00    2.876438e+00
  8.243579e+00    2.903544e+00
  8.354708e+00    2.874492e+00
  8.465837e+00    2.876547e+00
  8.576966e+00    2.821926e+00
  8.688095e+00    2.845458e+00
  8.799224e+00    2.759660e+00
  8.910353e+00    2.738763e+00
  9.021482e+00    2.772193e+00
  9.132611e+00    2.775043e+00
  9.243740e+00    2.784888e+00
  9.354869e+00    2.757877e+00
  9.465998e+00    2.739767e+00
  9.577127e+00    2.717467e+00
  9.688256e+00    2.720994e+00
  9.799385e+00    2.693442e+00
  9.910514e+00    2.674178e+00
  1.002164e+01    2.635318e+00
  1.013277e+01    2.576920e+00
  1.024390e+01    2.627481e+00
  1.035503e+01    2.612290e+00
  1.046616e+01    2.554405e+00
  1.057729e+01    2.564034e+00
  1.068842e+01    2.512662e+00
  1.079955e+01    2.532549e+00
  1.091068e+01    2.517821e+00
  1.102180e+01    2.425242e+00
  1.113293e+01    2.440028e+00
  1.124406e+01    2.362826e+00
  1.135519e+01    2.402279e+00
  1.146632e+01    2.401518e+00
  1.157745e+01    2.354578e+00
  1.168858e+01    2.401365e+00
  1.179971e+01    2.305527e+00
  1.191084e+01    2.355067e+00
  1.202197e+01    2.301647e+00
  1.213309e+01    2.313016e+00
  1.224422e+01    2.269590e+00
  1.235535e+01    2.306221e+00
  1.246648e+01    2.289299e+00
  1.257761e+01    2.326370e+00
  1.268874e+01    2.446389e+00
  1.279987e+01    2.643630e+00
  1.291100e+01    3.289849e+00
  1.302213e+01    6.012770e+00
  1.313326e+01    1.482283e+01
  1.324438e+01    1.348021e+01
  1.335551e+01    4.705855e+00
  1.346664e+01    2.961456e+00
  1.357777e+01    2.475978e+00
  1.368890e+01    2.250578e+00
  1.380003e+01    2.133223e+00
  1.391116e+01    2.106500e+00
  1.402229e+01    2.018599e+00
  1.413342e+01    1.987751e+00
  1.424455e+01    1.955700e+00
  1.435568e+01    1.915872e+00
  1.446680e+01    1.904842e+00
  1.457793e+01    1.888548e+00
  1.468906e+01    1.893583e+00
  1.480019e+01    1.882788e+00
  1.491132e+01    1.893795e+00
  1.502245e+01    2.171181e+00
  1.513358e+01    3.289789e+00
  1.524471e+01    5.765279e+00
  1.535584e+01    4.199381e+00
  1.546697e+01    2.272863e+00
  1.557809e+01    1.905558e+00
  1.568922e+01    1.753510e+00
  1.580035e+01    1.668290e+00
  1.591148e+01    1.626062e+00
  1.602261e+01    1.610679e+00
  1.613374e+01    1.556067e+00
  1.624487e+01    1.527730e+00
  1.635600e+01    1.501617e+00
  1.646713e+01    1.485856e+00
  1.657826e+01    1.480325e+00
  1.668938e+01    1.459027e+00
  1.680051e+01    1.450731e+00
  1.691164e+01    1.420846e+00
  1.702277e+01    1.415460e+00
  1.713390e+01    1.342218e+00
  1.724503e+01    1.358418e+00
  1.735616e+01    1.377098e+00
  1.746729e+01    1.353379e+00
  1.757842e+01    1.355116e+00
  1.768955e+01    1.360894e+00
  1.780067e+01    1.304879e+00
  1.791180e+01    1.280587e+00
  1.802293e+01    1.274905e+00
  1.813406e+01    1.287303e+00
  1.824519e+01    1.276382e+00
  1.835632e+01    1.242373e+00
  1.846745e+01    1.234445e+00
  1.857858e+01    1.226389e+00
  1.868971e+01    1.191738e+00
  1.880084e+01    1.184686e+00
  1.891196e+01    1.176525e+00
  1.902309e+01    1.178110e+00
  1.913422e+01    1.176752e+00
  1.924535e+01    1.165504e+00
  1.935648e+01    1.160054e+00
  1.946761e+01    1.161939e+00
  1.957874e+01    1.151847e+00
  1.968987e+01    1.133826e+00
  1.980100e+01    1.132275e+00
  1.991213e+01    1.096721e+00
  2.002325e+01    1.106062e+00
  2.013438e+01    1.082076e+00
  2.024551e+01    1.096717e+00
  2.035664e+01    1.118367e+00
  2.046777e+01    1.081651e+00
  2.057890e+01    1.078048e+00
  2.069003e+01    1.067341e+00
  2.080116e+01    1.064152e+00
  2.091229e+01    1.080477e+00
  2.102342e+01    1.071387e+00
  2.113455e+01    1.063254e+00
  2.124567e+01    1.097581e+00
  2.135680e+01    1.126680e+00
  2.146793e+01    1.212672e+00
  2.157906e+01    1.402987e+00
  2.169019e+01    2.187696e+00
  2.180132e+01    5.225510e+00
  2.191245e+01    9.941306e+00
  2.202358e+01    4.645213e+00
  2.213471e+01    2.020514e+00
  2.224584e+01    1.359107e+00
  2.235696e+01    1.168096e+00
  2.246809e+01    1.065800e+00
  2.257922e+01    1.000096e+00
  2.269035e+01    9.411677e-01
  2.280148e+01    9.433919e-01
  2.291261e+01    9.081203e-01
  2.302374e+01    8.794084e-01
  2.313487e+01    8.584271e-01
  2.324600e+01    8.756373e-01
  2.335713e+01    8.505365e-01
  2.346825e+01    8.606848e-01
  2.357938e+01    8.334804e-01
  2.369051e+01    8.216938e-01
  2.380164e+01    8.139705e-01
  2.391277e+01    7.868811e-01
  2.402390e+01    7.720622e-01
  2.413503e+01    7.735498e-01
  2.424616e+01    7.738757e-01
  2.435729e+01    7.869847e-01
  2.446842e+01    7.823058e-01
  2.457954e+01    7.965074e-01
  2.469067e+01    7.849066e-01
  2.480180e+01    7.724755e-01
  2.491293e+01    7.778267e-01
  2.502406e+01    7.752988e-01
  2.513519e+01    7.974945e-01
  2.524632e+01    8.541341e-01
  2.535745e+01    8.700370e-01
  2.546858e+01    9.488384e-01
  2.557971e+01    1.044353e+00
  2.569083e+01    1.352520e+00
  2.580196e+01    2.422182e+00
  2.591309e+01    5.961992e+00
  2.602422e+01    7.339851e+00
  2.613535e+01    2.718608e+00
  2.624648e+01    1.444475e+00
  2.635761e+01    1.076200e+00
  2.646874e+01    9.876553e-01
  2.657987e+01    9.191865e-01
  2.669100e+01    9.022508e-01
  2.680212e+01    8.796652e-01
  2.691325e+01    9.140556e-01
  2.702438e+01    1.052800e+00
  2.713551e+01    1.541581e+00
  2.724664e+01    2.385168e+00
  2.735777e+01    1.431581e+00
  2.746890e+01    1.009993e+00
  2.758003e+01    8.790185e-01
  2.769116e+01    8.176405e-01
  2.780229e+01    8.180000e-01
  2.791342e+01    7.885839e-01
  2.802454e+01    7.758293e-01
  2.813567e+01    7.829977e-01
  2.824680e+01    7.702578e-01
  2.835793e+01    7.557868e-01
  2.846906e+01    7.602444e-01
  2.858019e+01    7.406898e-01
  2.869132e+01    7.484403e-01
  2.880245e+01    7.432786e-01
  2.891358e+01    7.436032e-01
  2.902471e+01    7.408331e-01
  2.913583e+01    7.254874e-01
  2.924696e+01    7.150254e-01
  2.935809e+01    7.395636e-01
  2.946922e+01    7.172185e-01
  2.958035e+01    7.303391e-01
  2.969148e+01    7.184410e-01
  2.980261e+01    7.430476e-01
  2.991374e+01    7.210212e-01
  3.002487e+01    7.265170e-01
  3.013600e+01    7.269505e-01
  3.024712e+01    7.077687e-01
  3.035825e+01    6.939150e-01
  3.046938e+01    7.233974e-01
  3.058051e+01    7.128543e-01
  3.069164e+01    6.918583e-01
  3.080277e+01    7.112859e-01
  3.091390e+01    7.161084e-01
  3.102503e+01    7.288042e-01
  3.113616e+01    7.169701e-01
  3.124729e+01    7.044265e-01
  3.135841e+01    7.202965e-01
  3.146954e+01    7.536623e-01
  3.158067e+01    8.014606e-01
  3.169180e+01    8.936675e-01
  3.180293e+01    1.274976e+00
  3.191406e+01    2.323153e+00
  3.202519e+01    1.650177e+00
  3.213632e+01    9.783043e-01
  3.224745e+01    8.046990e-01
  3.235858e+01    7.502836e-01
  3.246970e+01    7.019510e-01
  3.254908e+01    7.118054e-01