File: XRD/2024-07-27_002_Ru-CGO-ex_Activtation_ramp_000002_data_000159.dat
# == pyFAI calibration ==
# Distance Sample to Detector: 0.4 m
# PONI: 9.750e-02, 1.135e-01 m
# Rotations: -0.000175 0.000000 -0.000000 rad
#
# == Fit2d calibration ==
# Distance Sample-beamCenter: 400.000 mm
# Center: x=1514.000, y=1300.000 pix
# Tilt: 0.010 deg  TiltPlanRot: 0.010 deg
#
# Detector Detector	 Spline= None	 PixelSize= 7.500e-05, 7.500e-05 m
#    Detector has a mask: False
#    Detector has a dark current: False
#    detector has a flat field: False
#
# Wavelength: 6.888e-11 m
# Mask applied: user provided
# Dark current applied: False
# Flat field applied: False
# Polarization factor: 0.99
# Normalization factor: 1.0
# --> /home/myspot/data/2024_07_Rosario/Ru-CGO-ex/2024-07-27_002_Ru-CGO-ex_Activtation_ramp_000002_data_000159.dat
#       q_nm^-1             I
  2.003187e-02    7.711873e-02
  1.311609e-01    1.689321e-02
  2.422899e-01    9.134909e-03
  3.534189e-01    3.899984e-02
  4.645479e-01    3.368932e-02
  5.756770e-01    5.083720e-02
  6.868060e-01    2.512919e-02
  7.979350e-01    1.188781e-01
  9.090640e-01    5.723758e-01
  1.020193e+00    1.123180e+00
  1.131322e+00    1.545724e+00
  1.242451e+00    2.232249e+00
  1.353580e+00    2.646740e+00
  1.464709e+00    2.775255e+00
  1.575838e+00    2.938843e+00
  1.686967e+00    2.714158e+00
  1.798096e+00    2.765108e+00
  1.909225e+00    2.745442e+00
  2.020354e+00    2.725531e+00
  2.131483e+00    2.688303e+00
  2.242612e+00    2.641234e+00
  2.353741e+00    2.754049e+00
  2.464870e+00    2.723406e+00
  2.575999e+00    2.781054e+00
  2.687128e+00    2.795341e+00
  2.798257e+00    2.720077e+00
  2.909386e+00    2.907552e+00
  3.020515e+00    2.868437e+00
  3.131644e+00    2.850299e+00
  3.242773e+00    2.950464e+00
  3.353902e+00    2.908097e+00
  3.465031e+00    3.016659e+00
  3.576160e+00    3.017879e+00
  3.687289e+00    3.047116e+00
  3.798418e+00    2.964443e+00
  3.909547e+00    2.987929e+00
  4.020676e+00    2.991373e+00
  4.131806e+00    3.041130e+00
  4.242935e+00    3.031389e+00
  4.354064e+00    3.096435e+00
  4.465193e+00    3.184197e+00
  4.576322e+00    3.025316e+00
  4.687451e+00    3.036452e+00
  4.798580e+00    3.149748e+00
  4.909709e+00    3.169508e+00
  5.020838e+00    3.202089e+00
  5.131967e+00    3.112763e+00
  5.243096e+00    3.082504e+00
  5.354225e+00    3.164852e+00
  5.465354e+00    3.191594e+00
  5.576483e+00    3.125338e+00
  5.687612e+00    3.174484e+00
  5.798741e+00    3.064059e+00
  5.909870e+00    3.072656e+00
  6.020999e+00    2.999665e+00
  6.132128e+00    3.081991e+00
  6.243257e+00    3.037461e+00
  6.354386e+00    3.049298e+00
  6.465515e+00    3.120203e+00
  6.576644e+00    3.099313e+00
  6.687773e+00    3.082050e+00
  6.798902e+00    3.137814e+00
  6.910031e+00    3.030956e+00
  7.021160e+00    3.068123e+00
  7.132289e+00    3.051065e+00
  7.243418e+00    3.008372e+00
  7.354547e+00    3.081192e+00
  7.465676e+00    3.081929e+00
  7.576805e+00    3.044597e+00
  7.687934e+00    2.968561e+00
  7.799063e+00    2.981984e+00
  7.910192e+00    2.933716e+00
  8.021321e+00    2.987148e+00
  8.132450e+00    2.891076e+00
  8.243579e+00    3.029037e+00
  8.354708e+00    2.898756e+00
  8.465837e+00    2.893931e+00
  8.576966e+00    2.915190e+00
  8.688095e+00    2.868105e+00
  8.799224e+00    2.899678e+00
  8.910353e+00    2.873096e+00
  9.021482e+00    2.856650e+00
  9.132611e+00    2.800648e+00
  9.243740e+00    2.791337e+00
  9.354869e+00    2.803496e+00
  9.465998e+00    2.814177e+00
  9.577127e+00    2.745995e+00
  9.688256e+00    2.742025e+00
  9.799385e+00    2.778468e+00
  9.910514e+00    2.719165e+00
  1.002164e+01    2.695314e+00
  1.013277e+01    2.597101e+00
  1.024390e+01    2.642556e+00
  1.035503e+01    2.645683e+00
  1.046616e+01    2.601451e+00
  1.057729e+01    2.599112e+00
  1.068842e+01    2.567299e+00
  1.079955e+01    2.532885e+00
  1.091068e+01    2.444049e+00
  1.102180e+01    2.513533e+00
  1.113293e+01    2.491755e+00
  1.124406e+01    2.493655e+00
  1.135519e+01    2.465340e+00
  1.146632e+01    2.419834e+00
  1.157745e+01    2.395144e+00
  1.168858e+01    2.381800e+00
  1.179971e+01    2.435253e+00
  1.191084e+01    2.365129e+00
  1.202197e+01    2.345087e+00
  1.213309e+01    2.300047e+00
  1.224422e+01    2.330242e+00
  1.235535e+01    2.323506e+00
  1.246648e+01    2.336751e+00
  1.257761e+01    2.361763e+00
  1.268874e+01    2.447883e+00
  1.279987e+01    2.680856e+00
  1.291100e+01    3.349917e+00
  1.302213e+01    6.321327e+00
  1.313326e+01    1.443930e+01
  1.324438e+01    1.060262e+01
  1.335551e+01    4.162672e+00
  1.346664e+01    2.829567e+00
  1.357777e+01    2.408577e+00
  1.368890e+01    2.284574e+00
  1.380003e+01    2.199845e+00
  1.391116e+01    2.101611e+00
  1.402229e+01    2.056604e+00
  1.413342e+01    2.004529e+00
  1.424455e+01    1.960964e+00
  1.435568e+01    1.930109e+00
  1.446680e+01    1.926163e+00
  1.457793e+01    1.952332e+00
  1.468906e+01    1.876821e+00
  1.480019e+01    1.921848e+00
  1.491132e+01    1.926563e+00
  1.502245e+01    2.252084e+00
  1.513358e+01    3.558381e+00
  1.524471e+01    5.575685e+00
  1.535584e+01    3.536544e+00
  1.546697e+01    2.180141e+00
  1.557809e+01    1.869697e+00
  1.568922e+01    1.730048e+00
  1.580035e+01    1.706549e+00
  1.591148e+01    1.667521e+00
  1.602261e+01    1.608436e+00
  1.613374e+01    1.578679e+00
  1.624487e+01    1.551733e+00
  1.635600e+01    1.578243e+00
  1.646713e+01    1.530928e+00
  1.657826e+01    1.521922e+00
  1.668938e+01    1.486316e+00
  1.680051e+01    1.488409e+00
  1.691164e+01    1.483789e+00
  1.702277e+01    1.452439e+00
  1.713390e+01    1.420360e+00
  1.724503e+01    1.449089e+00
  1.735616e+01    1.369015e+00
  1.746729e+01    1.374480e+00
  1.757842e+01    1.398269e+00
  1.768955e+01    1.373069e+00
  1.780067e+01    1.313248e+00
  1.791180e+01    1.301528e+00
  1.802293e+01    1.325330e+00
  1.813406e+01    1.303605e+00
  1.824519e+01    1.252612e+00
  1.835632e+01    1.270081e+00
  1.846745e+01    1.262190e+00
  1.857858e+01    1.248129e+00
  1.868971e+01    1.261045e+00
  1.880084e+01    1.221891e+00
  1.891196e+01    1.230070e+00
  1.902309e+01    1.220162e+00
  1.913422e+01    1.207922e+00
  1.924535e+01    1.205644e+00
  1.935648e+01    1.181007e+00
  1.946761e+01    1.164398e+00
  1.957874e+01    1.126410e+00
  1.968987e+01    1.160253e+00
  1.980100e+01    1.146126e+00
  1.991213e+01    1.152180e+00
  2.002325e+01    1.100825e+00
  2.013438e+01    1.097948e+00
  2.024551e+01    1.089698e+00
  2.035664e+01    1.117635e+00
  2.046777e+01    1.071982e+00
  2.057890e+01    1.095421e+00
  2.069003e+01    1.068918e+00
  2.080116e+01    1.083915e+00
  2.091229e+01    1.105890e+00
  2.102342e+01    1.088244e+00
  2.113455e+01    1.116342e+00
  2.124567e+01    1.121750e+00
  2.135680e+01    1.119054e+00
  2.146793e+01    1.256948e+00
  2.157906e+01    1.471458e+00
  2.169019e+01    2.381668e+00
  2.180132e+01    5.761052e+00
  2.191245e+01    8.813272e+00
  2.202358e+01    3.431351e+00
  2.213471e+01    1.729244e+00
  2.224584e+01    1.283448e+00
  2.235696e+01    1.102208e+00
  2.246809e+01    1.031363e+00
  2.257922e+01    1.002838e+00
  2.269035e+01    9.507459e-01
  2.280148e+01    9.763588e-01
  2.291261e+01    9.316941e-01
  2.302374e+01    9.055629e-01
  2.313487e+01    8.832570e-01
  2.324600e+01    8.822194e-01
  2.335713e+01    8.429028e-01
  2.346825e+01    8.655533e-01
  2.357938e+01    8.393933e-01
  2.369051e+01    8.250644e-01
  2.380164e+01    8.163264e-01
  2.391277e+01    7.856567e-01
  2.402390e+01    7.773457e-01
  2.413503e+01    7.926832e-01
  2.424616e+01    7.691633e-01
  2.435729e+01    7.785289e-01
  2.446842e+01    7.798244e-01
  2.457954e+01    7.918550e-01
  2.469067e+01    7.898414e-01
  2.480180e+01    7.810582e-01
  2.491293e+01    8.022972e-01
  2.502406e+01    8.058257e-01
  2.513519e+01    8.209836e-01
  2.524632e+01    8.414772e-01
  2.535745e+01    8.854446e-01
  2.546858e+01    9.677046e-01
  2.557971e+01    1.068696e+00
  2.569083e+01    1.447044e+00
  2.580196e+01    2.775520e+00
  2.591309e+01    6.485758e+00
  2.602422e+01    5.404031e+00
  2.613535e+01    2.069931e+00
  2.624648e+01    1.261918e+00
  2.635761e+01    1.019200e+00
  2.646874e+01    9.309112e-01
  2.657987e+01    8.955871e-01
  2.669100e+01    8.585556e-01
  2.680212e+01    8.764174e-01
  2.691325e+01    9.574993e-01
  2.702438e+01    1.057990e+00
  2.713551e+01    1.674751e+00
  2.724664e+01    2.134222e+00
  2.735777e+01    1.208490e+00
  2.746890e+01    9.386769e-01
  2.758003e+01    8.593254e-01
  2.769116e+01    8.233963e-01
  2.780229e+01    7.709448e-01
  2.791342e+01    7.919371e-01
  2.802454e+01    7.833276e-01
  2.813567e+01    7.986366e-01
  2.824680e+01    7.766157e-01
  2.835793e+01    7.739689e-01
  2.846906e+01    7.791620e-01
  2.858019e+01    7.442791e-01
  2.869132e+01    7.207790e-01
  2.880245e+01    7.454562e-01
  2.891358e+01    7.387149e-01
  2.902471e+01    7.187228e-01
  2.913583e+01    7.351279e-01
  2.924696e+01    7.234315e-01
  2.935809e+01    7.227573e-01
  2.946922e+01    7.454944e-01
  2.958035e+01    7.408956e-01
  2.969148e+01    7.159312e-01
  2.980261e+01    7.196687e-01
  2.991374e+01    7.288096e-01
  3.002487e+01    7.338206e-01
  3.013600e+01    7.378985e-01
  3.024712e+01    7.197057e-01
  3.035825e+01    7.062201e-01
  3.046938e+01    7.141951e-01
  3.058051e+01    7.259063e-01
  3.069164e+01    7.065744e-01
  3.080277e+01    7.182789e-01
  3.091390e+01    7.226881e-01
  3.102503e+01    7.294272e-01
  3.113616e+01    7.258007e-01
  3.124729e+01    7.275410e-01
  3.135841e+01    7.393262e-01
  3.146954e+01    7.511231e-01
  3.158067e+01    8.056508e-01
  3.169180e+01    9.543279e-01
  3.180293e+01    1.414749e+00
  3.191406e+01    2.170599e+00
  3.202519e+01    1.252377e+00
  3.213632e+01    9.065219e-01
  3.224745e+01    8.044029e-01
  3.235858e+01    7.270464e-01
  3.246970e+01    7.156704e-01
  3.254908e+01    7.200017e-01