File: XRD/2024-07-27_002_Ru-CGO-ex_Activtation_ramp_000002_data_000045.dat
# == pyFAI calibration ==
# Distance Sample to Detector: 0.4 m
# PONI: 9.750e-02, 1.135e-01 m
# Rotations: -0.000175 0.000000 -0.000000 rad
#
# == Fit2d calibration ==
# Distance Sample-beamCenter: 400.000 mm
# Center: x=1514.000, y=1300.000 pix
# Tilt: 0.010 deg  TiltPlanRot: 0.010 deg
#
# Detector Detector	 Spline= None	 PixelSize= 7.500e-05, 7.500e-05 m
#    Detector has a mask: False
#    Detector has a dark current: False
#    detector has a flat field: False
#
# Wavelength: 6.888e-11 m
# Mask applied: user provided
# Dark current applied: False
# Flat field applied: False
# Polarization factor: 0.99
# Normalization factor: 1.0
# --> /home/myspot/data/2024_07_Rosario/Ru-CGO-ex/2024-07-27_002_Ru-CGO-ex_Activtation_ramp_000002_data_000045.dat
#       q_nm^-1             I
  2.003187e-02    0.000000e+00
  1.311609e-01    0.000000e+00
  2.422899e-01    5.581893e-02
  3.534189e-01    3.528319e-04
  4.645479e-01    6.533485e-02
  5.756770e-01    4.228737e-02
  6.868060e-01    3.355957e-02
  7.979350e-01    1.532281e-01
  9.090640e-01    5.693221e-01
  1.020193e+00    1.126246e+00
  1.131322e+00    1.402986e+00
  1.242451e+00    2.148930e+00
  1.353580e+00    2.696750e+00
  1.464709e+00    2.681696e+00
  1.575838e+00    3.060327e+00
  1.686967e+00    2.876390e+00
  1.798096e+00    2.888363e+00
  1.909225e+00    2.800844e+00
  2.020354e+00    2.760399e+00
  2.131483e+00    2.780491e+00
  2.242612e+00    2.717645e+00
  2.353741e+00    2.774142e+00
  2.464870e+00    2.819991e+00
  2.575999e+00    2.882587e+00
  2.687128e+00    2.873949e+00
  2.798257e+00    2.809262e+00
  2.909386e+00    2.911301e+00
  3.020515e+00    2.864125e+00
  3.131644e+00    2.845819e+00
  3.242773e+00    2.876686e+00
  3.353902e+00    2.868574e+00
  3.465031e+00    2.945835e+00
  3.576160e+00    2.874460e+00
  3.687289e+00    2.952794e+00
  3.798418e+00    2.963889e+00
  3.909547e+00    2.994166e+00
  4.020676e+00    3.004081e+00
  4.131806e+00    3.021629e+00
  4.242935e+00    3.019668e+00
  4.354064e+00    3.091158e+00
  4.465193e+00    3.133190e+00
  4.576322e+00    3.096429e+00
  4.687451e+00    3.067135e+00
  4.798580e+00    3.158598e+00
  4.909709e+00    3.101364e+00
  5.020838e+00    3.104717e+00
  5.131967e+00    3.102418e+00
  5.243096e+00    3.153456e+00
  5.354225e+00    3.104450e+00
  5.465354e+00    3.084003e+00
  5.576483e+00    3.070238e+00
  5.687612e+00    3.140831e+00
  5.798741e+00    3.185734e+00
  5.909870e+00    2.988727e+00
  6.020999e+00    2.986212e+00
  6.132128e+00    2.985857e+00
  6.243257e+00    3.018203e+00
  6.354386e+00    3.056790e+00
  6.465515e+00    3.057348e+00
  6.576644e+00    3.036534e+00
  6.687773e+00    3.050078e+00
  6.798902e+00    3.059958e+00
  6.910031e+00    3.045305e+00
  7.021160e+00    2.968260e+00
  7.132289e+00    3.004774e+00
  7.243418e+00    2.971311e+00
  7.354547e+00    2.974384e+00
  7.465676e+00    2.957650e+00
  7.576805e+00    2.939965e+00
  7.687934e+00    3.031862e+00
  7.799063e+00    2.952670e+00
  7.910192e+00    2.988016e+00
  8.021321e+00    2.940844e+00
  8.132450e+00    2.949895e+00
  8.243579e+00    2.920974e+00
  8.354708e+00    2.929530e+00
  8.465837e+00    2.931349e+00
  8.576966e+00    2.843153e+00
  8.688095e+00    2.806591e+00
  8.799224e+00    2.837283e+00
  8.910353e+00    2.833858e+00
  9.021482e+00    2.797492e+00
  9.132611e+00    2.819656e+00
  9.243740e+00    2.803936e+00
  9.354869e+00    2.808843e+00
  9.465998e+00    2.782068e+00
  9.577127e+00    2.784830e+00
  9.688256e+00    2.771815e+00
  9.799385e+00    2.728197e+00
  9.910514e+00    2.691746e+00
  1.002164e+01    2.693970e+00
  1.013277e+01    2.643833e+00
  1.024390e+01    2.657434e+00
  1.035503e+01    2.663110e+00
  1.046616e+01    2.531852e+00
  1.057729e+01    2.536880e+00
  1.068842e+01    2.547023e+00
  1.079955e+01    2.511997e+00
  1.091068e+01    2.550116e+00
  1.102180e+01    2.462687e+00
  1.113293e+01    2.470871e+00
  1.124406e+01    2.473406e+00
  1.135519e+01    2.493550e+00
  1.146632e+01    2.429043e+00
  1.157745e+01    2.350059e+00
  1.168858e+01    2.362350e+00
  1.179971e+01    2.325279e+00
  1.191084e+01    2.337624e+00
  1.202197e+01    2.322414e+00
  1.213309e+01    2.310839e+00
  1.224422e+01    2.331201e+00
  1.235535e+01    2.347960e+00
  1.246648e+01    2.373236e+00
  1.257761e+01    2.367176e+00
  1.268874e+01    2.492586e+00
  1.279987e+01    2.677842e+00
  1.291100e+01    3.329997e+00
  1.302213e+01    5.938335e+00
  1.313326e+01    1.495514e+01
  1.324438e+01    1.542181e+01
  1.335551e+01    5.181632e+00
  1.346664e+01    3.109146e+00
  1.357777e+01    2.530866e+00
  1.368890e+01    2.295468e+00
  1.380003e+01    2.202675e+00
  1.391116e+01    2.129483e+00
  1.402229e+01    2.082906e+00
  1.413342e+01    2.072593e+00
  1.424455e+01    1.975746e+00
  1.435568e+01    1.949244e+00
  1.446680e+01    1.928912e+00
  1.457793e+01    1.936634e+00
  1.468906e+01    1.928363e+00
  1.480019e+01    1.888780e+00
  1.491132e+01    1.986900e+00
  1.502245e+01    2.168590e+00
  1.513358e+01    3.260205e+00
  1.524471e+01    5.895354e+00
  1.535584e+01    4.684215e+00
  1.546697e+01    2.409432e+00
  1.557809e+01    1.947418e+00
  1.568922e+01    1.775475e+00
  1.580035e+01    1.688971e+00
  1.591148e+01    1.668202e+00
  1.602261e+01    1.616040e+00
  1.613374e+01    1.593084e+00
  1.624487e+01    1.567411e+00
  1.635600e+01    1.551704e+00
  1.646713e+01    1.539294e+00
  1.657826e+01    1.527972e+00
  1.668938e+01    1.498935e+00
  1.680051e+01    1.477628e+00
  1.691164e+01    1.467066e+00
  1.702277e+01    1.409700e+00
  1.713390e+01    1.440056e+00
  1.724503e+01    1.388441e+00
  1.735616e+01    1.374191e+00
  1.746729e+01    1.337277e+00
  1.757842e+01    1.363928e+00
  1.768955e+01    1.350449e+00
  1.780067e+01    1.304962e+00
  1.791180e+01    1.309106e+00
  1.802293e+01    1.304640e+00
  1.813406e+01    1.286087e+00
  1.824519e+01    1.317790e+00
  1.835632e+01    1.304283e+00
  1.846745e+01    1.284693e+00
  1.857858e+01    1.269113e+00
  1.868971e+01    1.254971e+00
  1.880084e+01    1.237123e+00
  1.891196e+01    1.195379e+00
  1.902309e+01    1.227220e+00
  1.913422e+01    1.199699e+00
  1.924535e+01    1.207155e+00
  1.935648e+01    1.191239e+00
  1.946761e+01    1.178339e+00
  1.957874e+01    1.185589e+00
  1.968987e+01    1.129153e+00
  1.980100e+01    1.124401e+00
  1.991213e+01    1.105340e+00
  2.002325e+01    1.109195e+00
  2.013438e+01    1.125826e+00
  2.024551e+01    1.126597e+00
  2.035664e+01    1.091226e+00
  2.046777e+01    1.100854e+00
  2.057890e+01    1.092678e+00
  2.069003e+01    1.082326e+00
  2.080116e+01    1.086164e+00
  2.091229e+01    1.096644e+00
  2.102342e+01    1.077327e+00
  2.113455e+01    1.081320e+00
  2.124567e+01    1.133123e+00
  2.135680e+01    1.163270e+00
  2.146793e+01    1.256544e+00
  2.157906e+01    1.458844e+00
  2.169019e+01    2.141453e+00
  2.180132e+01    4.963738e+00
  2.191245e+01    1.040040e+01
  2.202358e+01    5.571673e+00
  2.213471e+01    2.235047e+00
  2.224584e+01    1.436479e+00
  2.235696e+01    1.179478e+00
  2.246809e+01    1.085891e+00
  2.257922e+01    1.030204e+00
  2.269035e+01    9.572177e-01
  2.280148e+01    9.413738e-01
  2.291261e+01    9.317276e-01
  2.302374e+01    9.085856e-01
  2.313487e+01    9.011277e-01
  2.324600e+01    8.685479e-01
  2.335713e+01    8.705536e-01
  2.346825e+01    8.382830e-01
  2.357938e+01    8.677915e-01
  2.369051e+01    8.476334e-01
  2.380164e+01    8.399694e-01
  2.391277e+01    8.414117e-01
  2.402390e+01    8.008174e-01
  2.413503e+01    7.938630e-01
  2.424616e+01    8.015960e-01
  2.435729e+01    7.956760e-01
  2.446842e+01    7.973077e-01
  2.457954e+01    8.026330e-01
  2.469067e+01    8.174185e-01
  2.480180e+01    8.138023e-01
  2.491293e+01    8.040224e-01
  2.502406e+01    8.317122e-01
  2.513519e+01    8.363259e-01
  2.524632e+01    8.525572e-01
  2.535745e+01    8.869463e-01
  2.546858e+01    9.502361e-01
  2.557971e+01    1.057904e+00
  2.569083e+01    1.342709e+00
  2.580196e+01    2.281524e+00
  2.591309e+01    5.720610e+00
  2.602422e+01    8.463566e+00
  2.613535e+01    3.203904e+00
  2.624648e+01    1.601819e+00
  2.635761e+01    1.172585e+00
  2.646874e+01    1.003594e+00
  2.657987e+01    9.446539e-01
  2.669100e+01    9.147826e-01
  2.680212e+01    8.919002e-01
  2.691325e+01    9.230807e-01
  2.702438e+01    1.009071e+00
  2.713551e+01    1.468540e+00
  2.724664e+01    2.504610e+00
  2.735777e+01    1.646607e+00
  2.746890e+01    1.080974e+00
  2.758003e+01    9.115196e-01
  2.769116e+01    8.456274e-01
  2.780229e+01    8.322747e-01
  2.791342e+01    8.121436e-01
  2.802454e+01    7.920198e-01
  2.813567e+01    7.887527e-01
  2.824680e+01    8.034021e-01
  2.835793e+01    7.732339e-01
  2.846906e+01    7.826245e-01
  2.858019e+01    7.709562e-01
  2.869132e+01    7.594376e-01
  2.880245e+01    7.562345e-01
  2.891358e+01    7.424843e-01
  2.902471e+01    7.459826e-01
  2.913583e+01    7.464793e-01
  2.924696e+01    7.398061e-01
  2.935809e+01    7.479166e-01
  2.946922e+01    7.225638e-01
  2.958035e+01    7.353551e-01
  2.969148e+01    7.268970e-01
  2.980261e+01    7.248466e-01
  2.991374e+01    7.433070e-01
  3.002487e+01    7.238814e-01
  3.013600e+01    7.397860e-01
  3.024712e+01    7.238963e-01
  3.035825e+01    7.077958e-01
  3.046938e+01    7.227125e-01
  3.058051e+01    7.025475e-01
  3.069164e+01    7.364275e-01
  3.080277e+01    7.254918e-01
  3.091390e+01    7.311672e-01
  3.102503e+01    7.133986e-01
  3.113616e+01    7.386581e-01
  3.124729e+01    7.187991e-01
  3.135841e+01    7.436475e-01
  3.146954e+01    7.771502e-01
  3.158067e+01    8.095408e-01
  3.169180e+01    8.956277e-01
  3.180293e+01    1.216163e+00
  3.191406e+01    2.282484e+00
  3.202519e+01    1.958091e+00
  3.213632e+01    1.047073e+00
  3.224745e+01    8.724243e-01
  3.235858e+01    7.681751e-01
  3.246970e+01    7.558406e-01
  3.254908e+01    7.364316e-01