File: XRD/2024-07-27_002_Ru-CGO-ex_Activtation_ramp_000002_data_000097.dat
# == pyFAI calibration ==
# Distance Sample to Detector: 0.4 m
# PONI: 9.750e-02, 1.135e-01 m
# Rotations: -0.000175 0.000000 -0.000000 rad
#
# == Fit2d calibration ==
# Distance Sample-beamCenter: 400.000 mm
# Center: x=1514.000, y=1300.000 pix
# Tilt: 0.010 deg  TiltPlanRot: 0.010 deg
#
# Detector Detector	 Spline= None	 PixelSize= 7.500e-05, 7.500e-05 m
#    Detector has a mask: False
#    Detector has a dark current: False
#    detector has a flat field: False
#
# Wavelength: 6.888e-11 m
# Mask applied: user provided
# Dark current applied: False
# Flat field applied: False
# Polarization factor: 0.99
# Normalization factor: 1.0
# --> /home/myspot/data/2024_07_Rosario/Ru-CGO-ex/2024-07-27_002_Ru-CGO-ex_Activtation_ramp_000002_data_000097.dat
#       q_nm^-1             I
  2.003187e-02    1.542450e-01
  1.311609e-01    0.000000e+00
  2.422899e-01    7.735296e-02
  3.534189e-01    6.712979e-02
  4.645479e-01    6.384125e-02
  5.756770e-01    3.360832e-02
  6.868060e-01    4.925935e-02
  7.979350e-01    1.462342e-01
  9.090640e-01    5.332735e-01
  1.020193e+00    1.119013e+00
  1.131322e+00    1.421277e+00
  1.242451e+00    2.218883e+00
  1.353580e+00    2.426309e+00
  1.464709e+00    2.931379e+00
  1.575838e+00    2.902718e+00
  1.686967e+00    2.933213e+00
  1.798096e+00    2.791155e+00
  1.909225e+00    2.714562e+00
  2.020354e+00    2.774884e+00
  2.131483e+00    2.633248e+00
  2.242612e+00    2.727616e+00
  2.353741e+00    2.778338e+00
  2.464870e+00    2.724680e+00
  2.575999e+00    2.769270e+00
  2.687128e+00    2.700258e+00
  2.798257e+00    2.817323e+00
  2.909386e+00    2.804617e+00
  3.020515e+00    2.866202e+00
  3.131644e+00    2.905577e+00
  3.242773e+00    2.921299e+00
  3.353902e+00    2.897176e+00
  3.465031e+00    2.949703e+00
  3.576160e+00    2.927363e+00
  3.687289e+00    2.988695e+00
  3.798418e+00    2.976222e+00
  3.909547e+00    2.983602e+00
  4.020676e+00    3.035192e+00
  4.131806e+00    2.964197e+00
  4.242935e+00    2.979617e+00
  4.354064e+00    3.055175e+00
  4.465193e+00    3.033099e+00
  4.576322e+00    3.003386e+00
  4.687451e+00    3.153157e+00
  4.798580e+00    3.086325e+00
  4.909709e+00    3.122712e+00
  5.020838e+00    3.079059e+00
  5.131967e+00    3.121884e+00
  5.243096e+00    3.070544e+00
  5.354225e+00    3.076196e+00
  5.465354e+00    3.067379e+00
  5.576483e+00    3.070095e+00
  5.687612e+00    3.016621e+00
  5.798741e+00    3.011614e+00
  5.909870e+00    2.955158e+00
  6.020999e+00    2.947338e+00
  6.132128e+00    2.997082e+00
  6.243257e+00    3.016982e+00
  6.354386e+00    2.931108e+00
  6.465515e+00    2.954741e+00
  6.576644e+00    2.913495e+00
  6.687773e+00    2.957581e+00
  6.798902e+00    2.969784e+00
  6.910031e+00    2.936283e+00
  7.021160e+00    2.917413e+00
  7.132289e+00    3.009917e+00
  7.243418e+00    2.938887e+00
  7.354547e+00    2.985469e+00
  7.465676e+00    2.925012e+00
  7.576805e+00    2.979387e+00
  7.687934e+00    2.955287e+00
  7.799063e+00    2.870486e+00
  7.910192e+00    2.986428e+00
  8.021321e+00    2.895016e+00
  8.132450e+00    2.965014e+00
  8.243579e+00    2.903424e+00
  8.354708e+00    2.850736e+00
  8.465837e+00    2.881466e+00
  8.576966e+00    2.851684e+00
  8.688095e+00    2.833091e+00
  8.799224e+00    2.790647e+00
  8.910353e+00    2.809765e+00
  9.021482e+00    2.763633e+00
  9.132611e+00    2.850882e+00
  9.243740e+00    2.734158e+00
  9.354869e+00    2.762141e+00
  9.465998e+00    2.761741e+00
  9.577127e+00    2.765198e+00
  9.688256e+00    2.737978e+00
  9.799385e+00    2.632377e+00
  9.910514e+00    2.689796e+00
  1.002164e+01    2.642717e+00
  1.013277e+01    2.614134e+00
  1.024390e+01    2.641579e+00
  1.035503e+01    2.569752e+00
  1.046616e+01    2.585634e+00
  1.057729e+01    2.618345e+00
  1.068842e+01    2.546996e+00
  1.079955e+01    2.516882e+00
  1.091068e+01    2.520237e+00
  1.102180e+01    2.463271e+00
  1.113293e+01    2.472272e+00
  1.124406e+01    2.431285e+00
  1.135519e+01    2.398622e+00
  1.146632e+01    2.392174e+00
  1.157745e+01    2.349881e+00
  1.168858e+01    2.378259e+00
  1.179971e+01    2.355544e+00
  1.191084e+01    2.294116e+00
  1.202197e+01    2.319091e+00
  1.213309e+01    2.324595e+00
  1.224422e+01    2.322971e+00
  1.235535e+01    2.289897e+00
  1.246648e+01    2.312528e+00
  1.257761e+01    2.386836e+00
  1.268874e+01    2.495878e+00
  1.279987e+01    2.647531e+00
  1.291100e+01    3.269784e+00
  1.302213e+01    5.996946e+00
  1.313326e+01    1.479622e+01
  1.324438e+01    1.300246e+01
  1.335551e+01    4.672276e+00
  1.346664e+01    2.930238e+00
  1.357777e+01    2.454786e+00
  1.368890e+01    2.281045e+00
  1.380003e+01    2.183157e+00
  1.391116e+01    2.115133e+00
  1.402229e+01    2.008940e+00
  1.413342e+01    1.979958e+00
  1.424455e+01    1.962076e+00
  1.435568e+01    1.944929e+00
  1.446680e+01    1.941137e+00
  1.457793e+01    1.882583e+00
  1.468906e+01    1.873376e+00
  1.480019e+01    1.929204e+00
  1.491132e+01    2.004156e+00
  1.502245e+01    2.205532e+00
  1.513358e+01    3.404828e+00
  1.524471e+01    5.796189e+00
  1.535584e+01    4.097858e+00
  1.546697e+01    2.271385e+00
  1.557809e+01    1.869452e+00
  1.568922e+01    1.718772e+00
  1.580035e+01    1.698309e+00
  1.591148e+01    1.607289e+00
  1.602261e+01    1.604384e+00
  1.613374e+01    1.575580e+00
  1.624487e+01    1.562261e+00
  1.635600e+01    1.532009e+00
  1.646713e+01    1.510278e+00
  1.657826e+01    1.469864e+00
  1.668938e+01    1.475464e+00
  1.680051e+01    1.440640e+00
  1.691164e+01    1.420093e+00
  1.702277e+01    1.426414e+00
  1.713390e+01    1.393697e+00
  1.724503e+01    1.371606e+00
  1.735616e+01    1.336655e+00
  1.746729e+01    1.359700e+00
  1.757842e+01    1.336085e+00
  1.768955e+01    1.333069e+00
  1.780067e+01    1.305055e+00
  1.791180e+01    1.329123e+00
  1.802293e+01    1.284950e+00
  1.813406e+01    1.263649e+00
  1.824519e+01    1.269941e+00
  1.835632e+01    1.253649e+00
  1.846745e+01    1.231399e+00
  1.857858e+01    1.203840e+00
  1.868971e+01    1.209461e+00
  1.880084e+01    1.193264e+00
  1.891196e+01    1.182221e+00
  1.902309e+01    1.199268e+00
  1.913422e+01    1.209133e+00
  1.924535e+01    1.193060e+00
  1.935648e+01    1.149481e+00
  1.946761e+01    1.169236e+00
  1.957874e+01    1.145481e+00
  1.968987e+01    1.138732e+00
  1.980100e+01    1.147649e+00
  1.991213e+01    1.108329e+00
  2.002325e+01    1.126954e+00
  2.013438e+01    1.109858e+00
  2.024551e+01    1.094801e+00
  2.035664e+01    1.086938e+00
  2.046777e+01    1.054840e+00
  2.057890e+01    1.093411e+00
  2.069003e+01    1.063630e+00
  2.080116e+01    1.056654e+00
  2.091229e+01    1.074304e+00
  2.102342e+01    1.066937e+00
  2.113455e+01    1.088413e+00
  2.124567e+01    1.118710e+00
  2.135680e+01    1.154265e+00
  2.146793e+01    1.230155e+00
  2.157906e+01    1.417101e+00
  2.169019e+01    2.250560e+00
  2.180132e+01    5.344785e+00
  2.191245e+01    9.854172e+00
  2.202358e+01    4.354169e+00
  2.213471e+01    1.942453e+00
  2.224584e+01    1.344447e+00
  2.235696e+01    1.138212e+00
  2.246809e+01    1.041216e+00
  2.257922e+01    1.006285e+00
  2.269035e+01    9.327662e-01
  2.280148e+01    9.326975e-01
  2.291261e+01    9.239728e-01
  2.302374e+01    8.866911e-01
  2.313487e+01    8.750445e-01
  2.324600e+01    8.578092e-01
  2.335713e+01    8.678752e-01
  2.346825e+01    8.488408e-01
  2.357938e+01    8.190573e-01
  2.369051e+01    8.172545e-01
  2.380164e+01    8.291557e-01
  2.391277e+01    7.968809e-01
  2.402390e+01    7.904508e-01
  2.413503e+01    7.712818e-01
  2.424616e+01    7.848641e-01
  2.435729e+01    7.969212e-01
  2.446842e+01    7.797921e-01
  2.457954e+01    7.922786e-01
  2.469067e+01    7.905479e-01
  2.480180e+01    7.848377e-01
  2.491293e+01    7.766017e-01
  2.502406e+01    8.073514e-01
  2.513519e+01    8.176951e-01
  2.524632e+01    8.401110e-01
  2.535745e+01    8.595433e-01
  2.546858e+01    9.335691e-01
  2.557971e+01    1.070526e+00
  2.569083e+01    1.395498e+00
  2.580196e+01    2.441417e+00
  2.591309e+01    6.211848e+00
  2.602422e+01    7.041481e+00
  2.613535e+01    2.583547e+00
  2.624648e+01    1.407258e+00
  2.635761e+01    1.091281e+00
  2.646874e+01    9.632697e-01
  2.657987e+01    9.154848e-01
  2.669100e+01    8.972389e-01
  2.680212e+01    8.976133e-01
  2.691325e+01    9.207154e-01
  2.702438e+01    1.052235e+00
  2.713551e+01    1.558720e+00
  2.724664e+01    2.361730e+00
  2.735777e+01    1.418680e+00
  2.746890e+01    1.002949e+00
  2.758003e+01    8.755288e-01
  2.769116e+01    8.283507e-01
  2.780229e+01    7.934959e-01
  2.791342e+01    8.000795e-01
  2.802454e+01    7.849018e-01
  2.813567e+01    7.808557e-01
  2.824680e+01    7.706383e-01
  2.835793e+01    7.699836e-01
  2.846906e+01    7.649809e-01
  2.858019e+01    7.497803e-01
  2.869132e+01    7.521130e-01
  2.880245e+01    7.504601e-01
  2.891358e+01    7.369032e-01
  2.902471e+01    7.366226e-01
  2.913583e+01    7.330780e-01
  2.924696e+01    7.218673e-01
  2.935809e+01    7.413979e-01
  2.946922e+01    7.146726e-01
  2.958035e+01    7.298145e-01
  2.969148e+01    7.295786e-01
  2.980261e+01    7.187339e-01
  2.991374e+01    7.063079e-01
  3.002487e+01    7.327884e-01
  3.013600e+01    7.161435e-01
  3.024712e+01    7.224463e-01
  3.035825e+01    6.930845e-01
  3.046938e+01    7.008886e-01
  3.058051e+01    6.971915e-01
  3.069164e+01    6.996538e-01
  3.080277e+01    7.190844e-01
  3.091390e+01    6.985804e-01
  3.102503e+01    7.224849e-01
  3.113616e+01    7.140880e-01
  3.124729e+01    7.245574e-01
  3.135841e+01    7.170117e-01
  3.146954e+01    7.619450e-01
  3.158067e+01    7.997193e-01
  3.169180e+01    9.102020e-01
  3.180293e+01    1.335258e+00
  3.191406e+01    2.306616e+00
  3.202519e+01    1.619292e+00
  3.213632e+01    9.701456e-01
  3.224745e+01    7.851410e-01
  3.235858e+01    7.326735e-01
  3.246970e+01    7.036296e-01
  3.254908e+01    7.233160e-01