File: XRD/2024-07-27_002_Ru-CGO-ex_Activtation_ramp_000002_data_000136.dat
# == pyFAI calibration ==
# Distance Sample to Detector: 0.4 m
# PONI: 9.750e-02, 1.135e-01 m
# Rotations: -0.000175 0.000000 -0.000000 rad
#
# == Fit2d calibration ==
# Distance Sample-beamCenter: 400.000 mm
# Center: x=1514.000, y=1300.000 pix
# Tilt: 0.010 deg  TiltPlanRot: 0.010 deg
#
# Detector Detector	 Spline= None	 PixelSize= 7.500e-05, 7.500e-05 m
#    Detector has a mask: False
#    Detector has a dark current: False
#    detector has a flat field: False
#
# Wavelength: 6.888e-11 m
# Mask applied: user provided
# Dark current applied: False
# Flat field applied: False
# Polarization factor: 0.99
# Normalization factor: 1.0
# --> /home/myspot/data/2024_07_Rosario/Ru-CGO-ex/2024-07-27_002_Ru-CGO-ex_Activtation_ramp_000002_data_000136.dat
#       q_nm^-1             I
  2.003187e-02    2.195846e-01
  1.311609e-01    2.671503e-03
  2.422899e-01    6.287101e-02
  3.534189e-01    2.131794e-02
  4.645479e-01    3.182539e-02
  5.756770e-01    2.227393e-02
  6.868060e-01    2.212165e-02
  7.979350e-01    1.747925e-01
  9.090640e-01    5.508190e-01
  1.020193e+00    9.697059e-01
  1.131322e+00    1.384179e+00
  1.242451e+00    2.167360e+00
  1.353580e+00    2.391286e+00
  1.464709e+00    2.725542e+00
  1.575838e+00    2.978356e+00
  1.686967e+00    2.801416e+00
  1.798096e+00    2.824762e+00
  1.909225e+00    2.789133e+00
  2.020354e+00    2.894193e+00
  2.131483e+00    2.692214e+00
  2.242612e+00    2.782124e+00
  2.353741e+00    2.753667e+00
  2.464870e+00    2.675733e+00
  2.575999e+00    2.723402e+00
  2.687128e+00    2.716197e+00
  2.798257e+00    2.793953e+00
  2.909386e+00    2.801187e+00
  3.020515e+00    2.743254e+00
  3.131644e+00    2.876206e+00
  3.242773e+00    2.918833e+00
  3.353902e+00    2.985313e+00
  3.465031e+00    2.845069e+00
  3.576160e+00    2.921972e+00
  3.687289e+00    2.989452e+00
  3.798418e+00    2.951526e+00
  3.909547e+00    3.126672e+00
  4.020676e+00    2.953224e+00
  4.131806e+00    2.960336e+00
  4.242935e+00    3.035195e+00
  4.354064e+00    2.979115e+00
  4.465193e+00    2.953496e+00
  4.576322e+00    3.055354e+00
  4.687451e+00    3.099101e+00
  4.798580e+00    3.108546e+00
  4.909709e+00    3.063241e+00
  5.020838e+00    3.142794e+00
  5.131967e+00    3.087913e+00
  5.243096e+00    3.080799e+00
  5.354225e+00    3.158530e+00
  5.465354e+00    3.072796e+00
  5.576483e+00    3.076784e+00
  5.687612e+00    3.047879e+00
  5.798741e+00    3.125219e+00
  5.909870e+00    3.109605e+00
  6.020999e+00    3.031747e+00
  6.132128e+00    3.009848e+00
  6.243257e+00    3.108502e+00
  6.354386e+00    2.992210e+00
  6.465515e+00    3.016900e+00
  6.576644e+00    2.890273e+00
  6.687773e+00    2.925601e+00
  6.798902e+00    3.057062e+00
  6.910031e+00    3.015309e+00
  7.021160e+00    3.001255e+00
  7.132289e+00    2.969739e+00
  7.243418e+00    2.904489e+00
  7.354547e+00    2.990333e+00
  7.465676e+00    2.929468e+00
  7.576805e+00    2.944973e+00
  7.687934e+00    2.900820e+00
  7.799063e+00    2.889037e+00
  7.910192e+00    2.883454e+00
  8.021321e+00    2.917421e+00
  8.132450e+00    2.973414e+00
  8.243579e+00    2.947081e+00
  8.354708e+00    2.974885e+00
  8.465837e+00    2.823381e+00
  8.576966e+00    2.887996e+00
  8.688095e+00    2.860480e+00
  8.799224e+00    2.810447e+00
  8.910353e+00    2.834616e+00
  9.021482e+00    2.772600e+00
  9.132611e+00    2.788802e+00
  9.243740e+00    2.795169e+00
  9.354869e+00    2.655223e+00
  9.465998e+00    2.737446e+00
  9.577127e+00    2.761287e+00
  9.688256e+00    2.821307e+00
  9.799385e+00    2.742191e+00
  9.910514e+00    2.678326e+00
  1.002164e+01    2.619744e+00
  1.013277e+01    2.636705e+00
  1.024390e+01    2.599742e+00
  1.035503e+01    2.570463e+00
  1.046616e+01    2.550148e+00
  1.057729e+01    2.590447e+00
  1.068842e+01    2.542070e+00
  1.079955e+01    2.494814e+00
  1.091068e+01    2.494118e+00
  1.102180e+01    2.470250e+00
  1.113293e+01    2.427244e+00
  1.124406e+01    2.445509e+00
  1.135519e+01    2.395630e+00
  1.146632e+01    2.393113e+00
  1.157745e+01    2.439108e+00
  1.168858e+01    2.352571e+00
  1.179971e+01    2.345686e+00
  1.191084e+01    2.341230e+00
  1.202197e+01    2.281142e+00
  1.213309e+01    2.319559e+00
  1.224422e+01    2.337470e+00
  1.235535e+01    2.279418e+00
  1.246648e+01    2.336270e+00
  1.257761e+01    2.368602e+00
  1.268874e+01    2.460200e+00
  1.279987e+01    2.649337e+00
  1.291100e+01    3.328292e+00
  1.302213e+01    6.224156e+00
  1.313326e+01    1.460876e+01
  1.324438e+01    1.163998e+01
  1.335551e+01    4.340842e+00
  1.346664e+01    2.834341e+00
  1.357777e+01    2.429661e+00
  1.368890e+01    2.264682e+00
  1.380003e+01    2.147548e+00
  1.391116e+01    2.048218e+00
  1.402229e+01    2.067042e+00
  1.413342e+01    1.971941e+00
  1.424455e+01    1.910698e+00
  1.435568e+01    1.947415e+00
  1.446680e+01    1.908682e+00
  1.457793e+01    1.913059e+00
  1.468906e+01    1.921722e+00
  1.480019e+01    1.925254e+00
  1.491132e+01    1.956211e+00
  1.502245e+01    2.176982e+00
  1.513358e+01    3.403250e+00
  1.524471e+01    5.677826e+00
  1.535584e+01    3.850776e+00
  1.546697e+01    2.174552e+00
  1.557809e+01    1.857708e+00
  1.568922e+01    1.811549e+00
  1.580035e+01    1.673526e+00
  1.591148e+01    1.647972e+00
  1.602261e+01    1.584819e+00
  1.613374e+01    1.568909e+00
  1.624487e+01    1.573344e+00
  1.635600e+01    1.560909e+00
  1.646713e+01    1.545284e+00
  1.657826e+01    1.501636e+00
  1.668938e+01    1.520723e+00
  1.680051e+01    1.479718e+00
  1.691164e+01    1.453498e+00
  1.702277e+01    1.439528e+00
  1.713390e+01    1.407115e+00
  1.724503e+01    1.398058e+00
  1.735616e+01    1.378322e+00
  1.746729e+01    1.407282e+00
  1.757842e+01    1.371600e+00
  1.768955e+01    1.333042e+00
  1.780067e+01    1.349780e+00
  1.791180e+01    1.302484e+00
  1.802293e+01    1.290936e+00
  1.813406e+01    1.281254e+00
  1.824519e+01    1.267163e+00
  1.835632e+01    1.250917e+00
  1.846745e+01    1.247326e+00
  1.857858e+01    1.266329e+00
  1.868971e+01    1.216718e+00
  1.880084e+01    1.230491e+00
  1.891196e+01    1.191460e+00
  1.902309e+01    1.190336e+00
  1.913422e+01    1.189540e+00
  1.924535e+01    1.183634e+00
  1.935648e+01    1.171898e+00
  1.946761e+01    1.140962e+00
  1.957874e+01    1.155005e+00
  1.968987e+01    1.148479e+00
  1.980100e+01    1.102838e+00
  1.991213e+01    1.128901e+00
  2.002325e+01    1.117317e+00
  2.013438e+01    1.082200e+00
  2.024551e+01    1.093487e+00
  2.035664e+01    1.104629e+00
  2.046777e+01    1.091152e+00
  2.057890e+01    1.050026e+00
  2.069003e+01    1.072977e+00
  2.080116e+01    1.074098e+00
  2.091229e+01    1.049501e+00
  2.102342e+01    1.087689e+00
  2.113455e+01    1.073354e+00
  2.124567e+01    1.094826e+00
  2.135680e+01    1.151933e+00
  2.146793e+01    1.240120e+00
  2.157906e+01    1.449501e+00
  2.169019e+01    2.301879e+00
  2.180132e+01    5.507281e+00
  2.191245e+01    9.351429e+00
  2.202358e+01    3.793965e+00
  2.213471e+01    1.793871e+00
  2.224584e+01    1.282140e+00
  2.235696e+01    1.140207e+00
  2.246809e+01    1.031885e+00
  2.257922e+01    9.648066e-01
  2.269035e+01    9.608880e-01
  2.280148e+01    9.205579e-01
  2.291261e+01    9.139261e-01
  2.302374e+01    8.997421e-01
  2.313487e+01    8.642891e-01
  2.324600e+01    8.702709e-01
  2.335713e+01    8.370601e-01
  2.346825e+01    8.469139e-01
  2.357938e+01    8.319312e-01
  2.369051e+01    8.093813e-01
  2.380164e+01    8.091915e-01
  2.391277e+01    8.000419e-01
  2.402390e+01    7.719536e-01
  2.413503e+01    7.679303e-01
  2.424616e+01    7.623539e-01
  2.435729e+01    7.669005e-01
  2.446842e+01    7.812001e-01
  2.457954e+01    7.924762e-01
  2.469067e+01    7.983558e-01
  2.480180e+01    7.899932e-01
  2.491293e+01    7.921462e-01
  2.502406e+01    8.109691e-01
  2.513519e+01    8.076057e-01
  2.524632e+01    8.265290e-01
  2.535745e+01    8.617787e-01
  2.546858e+01    9.564018e-01
  2.557971e+01    1.064403e+00
  2.569083e+01    1.423416e+00
  2.580196e+01    2.622779e+00
  2.591309e+01    6.308360e+00
  2.602422e+01    6.029510e+00
  2.613535e+01    2.259050e+00
  2.624648e+01    1.321252e+00
  2.635761e+01    1.048764e+00
  2.646874e+01    9.358571e-01
  2.657987e+01    8.853532e-01
  2.669100e+01    8.903065e-01
  2.680212e+01    9.053733e-01
  2.691325e+01    9.135698e-01
  2.702438e+01    1.076300e+00
  2.713551e+01    1.649704e+00
  2.724664e+01    2.216596e+00
  2.735777e+01    1.291966e+00
  2.746890e+01    9.659370e-01
  2.758003e+01    8.416226e-01
  2.769116e+01    8.379586e-01
  2.780229e+01    7.972221e-01
  2.791342e+01    7.823493e-01
  2.802454e+01    7.685733e-01
  2.813567e+01    7.696193e-01
  2.824680e+01    7.825155e-01
  2.835793e+01    7.823054e-01
  2.846906e+01    7.478427e-01
  2.858019e+01    7.474507e-01
  2.869132e+01    7.383134e-01
  2.880245e+01    7.616856e-01
  2.891358e+01    7.494604e-01
  2.902471e+01    7.190441e-01
  2.913583e+01    7.307457e-01
  2.924696e+01    7.201791e-01
  2.935809e+01    7.182999e-01
  2.946922e+01    6.895970e-01
  2.958035e+01    7.002543e-01
  2.969148e+01    6.985702e-01
  2.980261e+01    7.293401e-01
  2.991374e+01    7.085205e-01
  3.002487e+01    7.395455e-01
  3.013600e+01    7.099030e-01
  3.024712e+01    7.065453e-01
  3.035825e+01    6.795484e-01
  3.046938e+01    7.281430e-01
  3.058051e+01    7.000098e-01
  3.069164e+01    7.231011e-01
  3.080277e+01    7.137956e-01
  3.091390e+01    7.119983e-01
  3.102503e+01    7.032681e-01
  3.113616e+01    7.342562e-01
  3.124729e+01    7.178719e-01
  3.135841e+01    7.152550e-01
  3.146954e+01    7.673575e-01
  3.158067e+01    7.985258e-01
  3.169180e+01    9.255083e-01
  3.180293e+01    1.356310e+00
  3.191406e+01    2.227267e+00
  3.202519e+01    1.401307e+00
  3.213632e+01    9.069095e-01
  3.224745e+01    7.845349e-01
  3.235858e+01    7.656805e-01
  3.246970e+01    7.276503e-01
  3.254908e+01    7.223493e-01