File: XRD/2024-07-27_002_Ru-CGO-ex_Activtation_ramp_000002_data_000117.dat
# == pyFAI calibration ==
# Distance Sample to Detector: 0.4 m
# PONI: 9.750e-02, 1.135e-01 m
# Rotations: -0.000175 0.000000 -0.000000 rad
#
# == Fit2d calibration ==
# Distance Sample-beamCenter: 400.000 mm
# Center: x=1514.000, y=1300.000 pix
# Tilt: 0.010 deg  TiltPlanRot: 0.010 deg
#
# Detector Detector	 Spline= None	 PixelSize= 7.500e-05, 7.500e-05 m
#    Detector has a mask: False
#    Detector has a dark current: False
#    detector has a flat field: False
#
# Wavelength: 6.888e-11 m
# Mask applied: user provided
# Dark current applied: False
# Flat field applied: False
# Polarization factor: 0.99
# Normalization factor: 1.0
# --> /home/myspot/data/2024_07_Rosario/Ru-CGO-ex/2024-07-27_002_Ru-CGO-ex_Activtation_ramp_000002_data_000117.dat
#       q_nm^-1             I
  2.003187e-02    0.000000e+00
  1.311609e-01    5.634461e-02
  2.422899e-01    2.112998e-02
  3.534189e-01    8.267685e-03
  4.645479e-01    2.798286e-02
  5.756770e-01    3.489482e-02
  6.868060e-01    7.039226e-02
  7.979350e-01    1.588800e-01
  9.090640e-01    5.597143e-01
  1.020193e+00    1.054422e+00
  1.131322e+00    1.433417e+00
  1.242451e+00    2.130892e+00
  1.353580e+00    2.479038e+00
  1.464709e+00    2.545124e+00
  1.575838e+00    2.968360e+00
  1.686967e+00    2.651629e+00
  1.798096e+00    2.643858e+00
  1.909225e+00    2.694227e+00
  2.020354e+00    2.682706e+00
  2.131483e+00    2.747289e+00
  2.242612e+00    2.663698e+00
  2.353741e+00    2.756165e+00
  2.464870e+00    2.681479e+00
  2.575999e+00    2.613698e+00
  2.687128e+00    2.705821e+00
  2.798257e+00    2.854153e+00
  2.909386e+00    2.737879e+00
  3.020515e+00    2.695512e+00
  3.131644e+00    2.792722e+00
  3.242773e+00    2.745033e+00
  3.353902e+00    2.853115e+00
  3.465031e+00    2.895629e+00
  3.576160e+00    2.914759e+00
  3.687289e+00    2.879557e+00
  3.798418e+00    2.949115e+00
  3.909547e+00    2.944136e+00
  4.020676e+00    2.933460e+00
  4.131806e+00    3.010283e+00
  4.242935e+00    2.974663e+00
  4.354064e+00    3.070591e+00
  4.465193e+00    2.999091e+00
  4.576322e+00    2.999048e+00
  4.687451e+00    3.156547e+00
  4.798580e+00    2.973832e+00
  4.909709e+00    2.996538e+00
  5.020838e+00    3.045839e+00
  5.131967e+00    3.104072e+00
  5.243096e+00    2.985789e+00
  5.354225e+00    3.112884e+00
  5.465354e+00    3.012166e+00
  5.576483e+00    2.971946e+00
  5.687612e+00    3.064486e+00
  5.798741e+00    2.999201e+00
  5.909870e+00    2.976713e+00
  6.020999e+00    2.926939e+00
  6.132128e+00    3.005979e+00
  6.243257e+00    2.986045e+00
  6.354386e+00    2.930012e+00
  6.465515e+00    2.990498e+00
  6.576644e+00    2.965267e+00
  6.687773e+00    2.991554e+00
  6.798902e+00    3.022301e+00
  6.910031e+00    2.937502e+00
  7.021160e+00    2.933007e+00
  7.132289e+00    2.919575e+00
  7.243418e+00    2.938587e+00
  7.354547e+00    2.923359e+00
  7.465676e+00    3.032260e+00
  7.576805e+00    2.893543e+00
  7.687934e+00    2.926067e+00
  7.799063e+00    2.883404e+00
  7.910192e+00    2.877562e+00
  8.021321e+00    2.884575e+00
  8.132450e+00    2.825649e+00
  8.243579e+00    2.923584e+00
  8.354708e+00    2.772957e+00
  8.465837e+00    2.856439e+00
  8.576966e+00    2.803030e+00
  8.688095e+00    2.837726e+00
  8.799224e+00    2.819901e+00
  8.910353e+00    2.773339e+00
  9.021482e+00    2.783761e+00
  9.132611e+00    2.733427e+00
  9.243740e+00    2.754420e+00
  9.354869e+00    2.740685e+00
  9.465998e+00    2.756818e+00
  9.577127e+00    2.670019e+00
  9.688256e+00    2.704855e+00
  9.799385e+00    2.627653e+00
  9.910514e+00    2.658782e+00
  1.002164e+01    2.644671e+00
  1.013277e+01    2.560317e+00
  1.024390e+01    2.531496e+00
  1.035503e+01    2.533237e+00
  1.046616e+01    2.567778e+00
  1.057729e+01    2.511040e+00
  1.068842e+01    2.500815e+00
  1.079955e+01    2.489073e+00
  1.091068e+01    2.535312e+00
  1.102180e+01    2.462749e+00
  1.113293e+01    2.392756e+00
  1.124406e+01    2.426411e+00
  1.135519e+01    2.396494e+00
  1.146632e+01    2.333990e+00
  1.157745e+01    2.316848e+00
  1.168858e+01    2.359194e+00
  1.179971e+01    2.325543e+00
  1.191084e+01    2.274486e+00
  1.202197e+01    2.284602e+00
  1.213309e+01    2.302114e+00
  1.224422e+01    2.249507e+00
  1.235535e+01    2.264583e+00
  1.246648e+01    2.311148e+00
  1.257761e+01    2.379127e+00
  1.268874e+01    2.388594e+00
  1.279987e+01    2.634848e+00
  1.291100e+01    3.238698e+00
  1.302213e+01    6.043448e+00
  1.313326e+01    1.449325e+01
  1.324438e+01    1.227514e+01
  1.335551e+01    4.491113e+00
  1.346664e+01    2.813703e+00
  1.357777e+01    2.401970e+00
  1.368890e+01    2.215899e+00
  1.380003e+01    2.121008e+00
  1.391116e+01    2.096449e+00
  1.402229e+01    2.023793e+00
  1.413342e+01    2.012197e+00
  1.424455e+01    1.914843e+00
  1.435568e+01    1.880354e+00
  1.446680e+01    1.886352e+00
  1.457793e+01    1.898844e+00
  1.468906e+01    1.881803e+00
  1.480019e+01    1.894747e+00
  1.491132e+01    1.946271e+00
  1.502245e+01    2.186435e+00
  1.513358e+01    3.292167e+00
  1.524471e+01    5.632182e+00
  1.535584e+01    3.888717e+00
  1.546697e+01    2.199059e+00
  1.557809e+01    1.858174e+00
  1.568922e+01    1.733244e+00
  1.580035e+01    1.672639e+00
  1.591148e+01    1.620867e+00
  1.602261e+01    1.591560e+00
  1.613374e+01    1.537371e+00
  1.624487e+01    1.524237e+00
  1.635600e+01    1.525136e+00
  1.646713e+01    1.484806e+00
  1.657826e+01    1.476668e+00
  1.668938e+01    1.431474e+00
  1.680051e+01    1.449729e+00
  1.691164e+01    1.414333e+00
  1.702277e+01    1.410655e+00
  1.713390e+01    1.400580e+00
  1.724503e+01    1.399106e+00
  1.735616e+01    1.365150e+00
  1.746729e+01    1.330925e+00
  1.757842e+01    1.338622e+00
  1.768955e+01    1.343213e+00
  1.780067e+01    1.307162e+00
  1.791180e+01    1.296607e+00
  1.802293e+01    1.296692e+00
  1.813406e+01    1.295009e+00
  1.824519e+01    1.270409e+00
  1.835632e+01    1.242297e+00
  1.846745e+01    1.250024e+00
  1.857858e+01    1.212484e+00
  1.868971e+01    1.238959e+00
  1.880084e+01    1.219943e+00
  1.891196e+01    1.175859e+00
  1.902309e+01    1.202562e+00
  1.913422e+01    1.167909e+00
  1.924535e+01    1.177514e+00
  1.935648e+01    1.175992e+00
  1.946761e+01    1.151658e+00
  1.957874e+01    1.134363e+00
  1.968987e+01    1.113453e+00
  1.980100e+01    1.112064e+00
  1.991213e+01    1.099399e+00
  2.002325e+01    1.079970e+00
  2.013438e+01    1.094877e+00
  2.024551e+01    1.095850e+00
  2.035664e+01    1.083461e+00
  2.046777e+01    1.072732e+00
  2.057890e+01    1.072277e+00
  2.069003e+01    1.079119e+00
  2.080116e+01    1.064432e+00
  2.091229e+01    1.056814e+00
  2.102342e+01    1.052619e+00
  2.113455e+01    1.080665e+00
  2.124567e+01    1.076586e+00
  2.135680e+01    1.136402e+00
  2.146793e+01    1.227503e+00
  2.157906e+01    1.448062e+00
  2.169019e+01    2.186885e+00
  2.180132e+01    5.321918e+00
  2.191245e+01    9.568181e+00
  2.202358e+01    4.158083e+00
  2.213471e+01    1.849450e+00
  2.224584e+01    1.342078e+00
  2.235696e+01    1.113316e+00
  2.246809e+01    1.037120e+00
  2.257922e+01    9.602376e-01
  2.269035e+01    9.310393e-01
  2.280148e+01    9.375900e-01
  2.291261e+01    9.035113e-01
  2.302374e+01    8.733479e-01
  2.313487e+01    8.742061e-01
  2.324600e+01    8.401254e-01
  2.335713e+01    8.649522e-01
  2.346825e+01    8.204178e-01
  2.357938e+01    8.234571e-01
  2.369051e+01    8.189580e-01
  2.380164e+01    8.013254e-01
  2.391277e+01    7.823340e-01
  2.402390e+01    7.824132e-01
  2.413503e+01    7.728127e-01
  2.424616e+01    7.615982e-01
  2.435729e+01    7.741195e-01
  2.446842e+01    7.858746e-01
  2.457954e+01    7.647223e-01
  2.469067e+01    8.013639e-01
  2.480180e+01    7.921199e-01
  2.491293e+01    7.933429e-01
  2.502406e+01    7.828280e-01
  2.513519e+01    7.936631e-01
  2.524632e+01    8.293609e-01
  2.535745e+01    8.804404e-01
  2.546858e+01    9.204550e-01
  2.557971e+01    1.056023e+00
  2.569083e+01    1.395336e+00
  2.580196e+01    2.483069e+00
  2.591309e+01    6.127057e+00
  2.602422e+01    6.650052e+00
  2.613535e+01    2.414822e+00
  2.624648e+01    1.367141e+00
  2.635761e+01    1.041547e+00
  2.646874e+01    9.332572e-01
  2.657987e+01    9.123343e-01
  2.669100e+01    8.915368e-01
  2.680212e+01    8.662144e-01
  2.691325e+01    9.062957e-01
  2.702438e+01    1.035104e+00
  2.713551e+01    1.570789e+00
  2.724664e+01    2.236123e+00
  2.735777e+01    1.352668e+00
  2.746890e+01    9.789263e-01
  2.758003e+01    8.609551e-01
  2.769116e+01    8.386718e-01
  2.780229e+01    8.109263e-01
  2.791342e+01    8.088171e-01
  2.802454e+01    7.568751e-01
  2.813567e+01    7.799559e-01
  2.824680e+01    7.623379e-01
  2.835793e+01    7.706832e-01
  2.846906e+01    7.554120e-01
  2.858019e+01    7.477983e-01
  2.869132e+01    7.359116e-01
  2.880245e+01    7.325823e-01
  2.891358e+01    7.590762e-01
  2.902471e+01    7.260433e-01
  2.913583e+01    7.476498e-01
  2.924696e+01    7.269203e-01
  2.935809e+01    7.305964e-01
  2.946922e+01    7.133269e-01
  2.958035e+01    7.102700e-01
  2.969148e+01    7.267318e-01
  2.980261e+01    7.281161e-01
  2.991374e+01    7.271646e-01
  3.002487e+01    6.955334e-01
  3.013600e+01    7.207173e-01
  3.024712e+01    7.163911e-01
  3.035825e+01    7.111952e-01
  3.046938e+01    6.817536e-01
  3.058051e+01    6.975505e-01
  3.069164e+01    6.935719e-01
  3.080277e+01    7.004918e-01
  3.091390e+01    6.998299e-01
  3.102503e+01    7.180056e-01
  3.113616e+01    7.166914e-01
  3.124729e+01    7.126944e-01
  3.135841e+01    7.426817e-01
  3.146954e+01    7.344171e-01
  3.158067e+01    7.765343e-01
  3.169180e+01    9.012930e-01
  3.180293e+01    1.329083e+00
  3.191406e+01    2.273665e+00
  3.202519e+01    1.501339e+00
  3.213632e+01    9.279487e-01
  3.224745e+01    8.046956e-01
  3.235858e+01    7.529654e-01
  3.246970e+01    7.130756e-01
  3.254908e+01    7.270576e-01