File: XRD/2024-07-27_002_Ru-CGO-ex_Activtation_ramp_000002_data_000028.dat
# == pyFAI calibration ==
# Distance Sample to Detector: 0.4 m
# PONI: 9.750e-02, 1.135e-01 m
# Rotations: -0.000175 0.000000 -0.000000 rad
#
# == Fit2d calibration ==
# Distance Sample-beamCenter: 400.000 mm
# Center: x=1514.000, y=1300.000 pix
# Tilt: 0.010 deg  TiltPlanRot: 0.010 deg
#
# Detector Detector	 Spline= None	 PixelSize= 7.500e-05, 7.500e-05 m
#    Detector has a mask: False
#    Detector has a dark current: False
#    detector has a flat field: False
#
# Wavelength: 6.888e-11 m
# Mask applied: user provided
# Dark current applied: False
# Flat field applied: False
# Polarization factor: 0.99
# Normalization factor: 1.0
# --> /home/myspot/data/2024_07_Rosario/Ru-CGO-ex/2024-07-27_002_Ru-CGO-ex_Activtation_ramp_000002_data_000028.dat
#       q_nm^-1             I
  2.003187e-02    7.712624e-02
  1.311609e-01    4.107289e-02
  2.422899e-01    2.013729e-02
  3.534189e-01    3.309729e-02
  4.645479e-01    3.901177e-02
  5.756770e-01    1.310054e-02
  6.868060e-01    4.927269e-02
  7.979350e-01    1.670839e-01
  9.090640e-01    5.797788e-01
  1.020193e+00    1.082349e+00
  1.131322e+00    1.520564e+00
  1.242451e+00    2.252911e+00
  1.353580e+00    2.670545e+00
  1.464709e+00    2.923477e+00
  1.575838e+00    2.937535e+00
  1.686967e+00    2.924200e+00
  1.798096e+00    2.924240e+00
  1.909225e+00    2.773508e+00
  2.020354e+00    2.829524e+00
  2.131483e+00    2.644700e+00
  2.242612e+00    2.785713e+00
  2.353741e+00    2.745467e+00
  2.464870e+00    2.776354e+00
  2.575999e+00    2.873049e+00
  2.687128e+00    2.852265e+00
  2.798257e+00    2.783944e+00
  2.909386e+00    2.835376e+00
  3.020515e+00    2.960898e+00
  3.131644e+00    2.855033e+00
  3.242773e+00    2.953451e+00
  3.353902e+00    3.007983e+00
  3.465031e+00    2.988825e+00
  3.576160e+00    3.075414e+00
  3.687289e+00    3.025255e+00
  3.798418e+00    3.006684e+00
  3.909547e+00    3.090443e+00
  4.020676e+00    3.026502e+00
  4.131806e+00    2.947381e+00
  4.242935e+00    3.074858e+00
  4.354064e+00    3.052354e+00
  4.465193e+00    3.004915e+00
  4.576322e+00    3.133930e+00
  4.687451e+00    3.128004e+00
  4.798580e+00    3.137129e+00
  4.909709e+00    3.080352e+00
  5.020838e+00    3.070985e+00
  5.131967e+00    3.203365e+00
  5.243096e+00    3.160920e+00
  5.354225e+00    3.170424e+00
  5.465354e+00    3.043385e+00
  5.576483e+00    3.097629e+00
  5.687612e+00    2.996794e+00
  5.798741e+00    3.095823e+00
  5.909870e+00    3.062973e+00
  6.020999e+00    2.969287e+00
  6.132128e+00    3.031436e+00
  6.243257e+00    3.042155e+00
  6.354386e+00    3.069596e+00
  6.465515e+00    3.101832e+00
  6.576644e+00    3.025923e+00
  6.687773e+00    3.064085e+00
  6.798902e+00    3.065544e+00
  6.910031e+00    3.059013e+00
  7.021160e+00    3.053124e+00
  7.132289e+00    2.999736e+00
  7.243418e+00    3.030509e+00
  7.354547e+00    3.078329e+00
  7.465676e+00    3.021834e+00
  7.576805e+00    2.897186e+00
  7.687934e+00    3.003763e+00
  7.799063e+00    2.877563e+00
  7.910192e+00    2.985310e+00
  8.021321e+00    2.915349e+00
  8.132450e+00    2.989928e+00
  8.243579e+00    2.983786e+00
  8.354708e+00    2.915289e+00
  8.465837e+00    2.881661e+00
  8.576966e+00    2.828765e+00
  8.688095e+00    2.821684e+00
  8.799224e+00    2.865412e+00
  8.910353e+00    2.814031e+00
  9.021482e+00    2.854157e+00
  9.132611e+00    2.852107e+00
  9.243740e+00    2.822771e+00
  9.354869e+00    2.810409e+00
  9.465998e+00    2.766462e+00
  9.577127e+00    2.801519e+00
  9.688256e+00    2.723948e+00
  9.799385e+00    2.703618e+00
  9.910514e+00    2.675309e+00
  1.002164e+01    2.706949e+00
  1.013277e+01    2.626647e+00
  1.024390e+01    2.691249e+00
  1.035503e+01    2.634993e+00
  1.046616e+01    2.605206e+00
  1.057729e+01    2.600219e+00
  1.068842e+01    2.582320e+00
  1.079955e+01    2.532133e+00
  1.091068e+01    2.501079e+00
  1.102180e+01    2.504684e+00
  1.113293e+01    2.494642e+00
  1.124406e+01    2.522328e+00
  1.135519e+01    2.435426e+00
  1.146632e+01    2.430219e+00
  1.157745e+01    2.391999e+00
  1.168858e+01    2.352155e+00
  1.179971e+01    2.400042e+00
  1.191084e+01    2.396236e+00
  1.202197e+01    2.301230e+00
  1.213309e+01    2.320671e+00
  1.224422e+01    2.318628e+00
  1.235535e+01    2.315918e+00
  1.246648e+01    2.373483e+00
  1.257761e+01    2.412234e+00
  1.268874e+01    2.435427e+00
  1.279987e+01    2.719338e+00
  1.291100e+01    3.305382e+00
  1.302213e+01    5.849004e+00
  1.313326e+01    1.500435e+01
  1.324438e+01    1.605976e+01
  1.335551e+01    5.405695e+00
  1.346664e+01    3.192941e+00
  1.357777e+01    2.533910e+00
  1.368890e+01    2.310581e+00
  1.380003e+01    2.261588e+00
  1.391116e+01    2.131908e+00
  1.402229e+01    2.111087e+00
  1.413342e+01    2.030928e+00
  1.424455e+01    2.030128e+00
  1.435568e+01    1.971961e+00
  1.446680e+01    1.950845e+00
  1.457793e+01    1.964930e+00
  1.468906e+01    1.925554e+00
  1.480019e+01    1.906675e+00
  1.491132e+01    1.981354e+00
  1.502245e+01    2.200479e+00
  1.513358e+01    3.222954e+00
  1.524471e+01    5.977827e+00
  1.535584e+01    4.929648e+00
  1.546697e+01    2.501843e+00
  1.557809e+01    1.942387e+00
  1.568922e+01    1.816451e+00
  1.580035e+01    1.726680e+00
  1.591148e+01    1.672374e+00
  1.602261e+01    1.653498e+00
  1.613374e+01    1.633378e+00
  1.624487e+01    1.559076e+00
  1.635600e+01    1.547366e+00
  1.646713e+01    1.524021e+00
  1.657826e+01    1.514301e+00
  1.668938e+01    1.466828e+00
  1.680051e+01    1.472860e+00
  1.691164e+01    1.447817e+00
  1.702277e+01    1.450487e+00
  1.713390e+01    1.445770e+00
  1.724503e+01    1.412336e+00
  1.735616e+01    1.408956e+00
  1.746729e+01    1.409719e+00
  1.757842e+01    1.363349e+00
  1.768955e+01    1.373592e+00
  1.780067e+01    1.363491e+00
  1.791180e+01    1.330544e+00
  1.802293e+01    1.307501e+00
  1.813406e+01    1.333674e+00
  1.824519e+01    1.284594e+00
  1.835632e+01    1.298193e+00
  1.846745e+01    1.257149e+00
  1.857858e+01    1.257951e+00
  1.868971e+01    1.240147e+00
  1.880084e+01    1.261232e+00
  1.891196e+01    1.223337e+00
  1.902309e+01    1.215427e+00
  1.913422e+01    1.209027e+00
  1.924535e+01    1.208081e+00
  1.935648e+01    1.163759e+00
  1.946761e+01    1.209736e+00
  1.957874e+01    1.201507e+00
  1.968987e+01    1.146549e+00
  1.980100e+01    1.147437e+00
  1.991213e+01    1.130773e+00
  2.002325e+01    1.137669e+00
  2.013438e+01    1.095711e+00
  2.024551e+01    1.128050e+00
  2.035664e+01    1.091306e+00
  2.046777e+01    1.102739e+00
  2.057890e+01    1.115004e+00
  2.069003e+01    1.095553e+00
  2.080116e+01    1.111587e+00
  2.091229e+01    1.110267e+00
  2.102342e+01    1.091113e+00
  2.113455e+01    1.132273e+00
  2.124567e+01    1.137886e+00
  2.135680e+01    1.160860e+00
  2.146793e+01    1.261676e+00
  2.157906e+01    1.445040e+00
  2.169019e+01    2.122436e+00
  2.180132e+01    4.896222e+00
  2.191245e+01    1.050902e+01
  2.202358e+01    5.952634e+00
  2.213471e+01    2.342151e+00
  2.224584e+01    1.476231e+00
  2.235696e+01    1.227501e+00
  2.246809e+01    1.087170e+00
  2.257922e+01    1.025562e+00
  2.269035e+01    9.836073e-01
  2.280148e+01    9.746146e-01
  2.291261e+01    9.393278e-01
  2.302374e+01    9.166881e-01
  2.313487e+01    9.044378e-01
  2.324600e+01    8.905405e-01
  2.335713e+01    8.807998e-01
  2.346825e+01    8.682829e-01
  2.357938e+01    8.663560e-01
  2.369051e+01    8.274723e-01
  2.380164e+01    8.374172e-01
  2.391277e+01    8.114874e-01
  2.402390e+01    8.227057e-01
  2.413503e+01    7.870216e-01
  2.424616e+01    7.923021e-01
  2.435729e+01    8.104095e-01
  2.446842e+01    8.117930e-01
  2.457954e+01    8.119233e-01
  2.469067e+01    7.760490e-01
  2.480180e+01    8.272690e-01
  2.491293e+01    8.102348e-01
  2.502406e+01    8.182381e-01
  2.513519e+01    8.236632e-01
  2.524632e+01    8.581097e-01
  2.535745e+01    8.749133e-01
  2.546858e+01    9.618399e-01
  2.557971e+01    1.069533e+00
  2.569083e+01    1.324391e+00
  2.580196e+01    2.211286e+00
  2.591309e+01    5.594141e+00
  2.602422e+01    8.855139e+00
  2.613535e+01    3.546824e+00
  2.624648e+01    1.666434e+00
  2.635761e+01    1.190466e+00
  2.646874e+01    1.055359e+00
  2.657987e+01    9.345832e-01
  2.669100e+01    9.348118e-01
  2.680212e+01    9.272787e-01
  2.691325e+01    9.450312e-01
  2.702438e+01    1.024839e+00
  2.713551e+01    1.443973e+00
  2.724664e+01    2.533137e+00
  2.735777e+01    1.808295e+00
  2.746890e+01    1.122261e+00
  2.758003e+01    9.376474e-01
  2.769116e+01    8.665656e-01
  2.780229e+01    8.375097e-01
  2.791342e+01    8.377562e-01
  2.802454e+01    8.485764e-01
  2.813567e+01    7.994389e-01
  2.824680e+01    7.910035e-01
  2.835793e+01    7.816447e-01
  2.846906e+01    7.817979e-01
  2.858019e+01    7.612817e-01
  2.869132e+01    7.992105e-01
  2.880245e+01    7.394350e-01
  2.891358e+01    7.572092e-01
  2.902471e+01    7.597451e-01
  2.913583e+01    7.535394e-01
  2.924696e+01    7.375225e-01
  2.935809e+01    7.340989e-01
  2.946922e+01    7.352802e-01
  2.958035e+01    7.381621e-01
  2.969148e+01    7.386354e-01
  2.980261e+01    7.224386e-01
  2.991374e+01    7.059858e-01
  3.002487e+01    7.520026e-01
  3.013600e+01    7.250430e-01
  3.024712e+01    7.438906e-01
  3.035825e+01    7.658083e-01
  3.046938e+01    7.297426e-01
  3.058051e+01    7.024275e-01
  3.069164e+01    7.242122e-01
  3.080277e+01    7.301446e-01
  3.091390e+01    7.219559e-01
  3.102503e+01    7.361589e-01
  3.113616e+01    7.387675e-01
  3.124729e+01    7.365252e-01
  3.135841e+01    7.630425e-01
  3.146954e+01    7.577103e-01
  3.158067e+01    7.888197e-01
  3.169180e+01    8.932083e-01
  3.180293e+01    1.195137e+00
  3.191406e+01    2.232875e+00
  3.202519e+01    2.138939e+00
  3.213632e+01    1.116394e+00
  3.224745e+01    8.612783e-01
  3.235858e+01    7.964522e-01
  3.246970e+01    7.791960e-01
  3.254908e+01    7.338275e-01