File: XRD/2024-07-27_002_Ru-CGO-ex_Activtation_ramp_000002_data_000017.dat
# == pyFAI calibration ==
# Distance Sample to Detector: 0.4 m
# PONI: 9.750e-02, 1.135e-01 m
# Rotations: -0.000175 0.000000 -0.000000 rad
#
# == Fit2d calibration ==
# Distance Sample-beamCenter: 400.000 mm
# Center: x=1514.000, y=1300.000 pix
# Tilt: 0.010 deg  TiltPlanRot: 0.010 deg
#
# Detector Detector	 Spline= None	 PixelSize= 7.500e-05, 7.500e-05 m
#    Detector has a mask: False
#    Detector has a dark current: False
#    detector has a flat field: False
#
# Wavelength: 6.888e-11 m
# Mask applied: user provided
# Dark current applied: False
# Flat field applied: False
# Polarization factor: 0.99
# Normalization factor: 1.0
# --> /home/myspot/data/2024_07_Rosario/Ru-CGO-ex/2024-07-27_002_Ru-CGO-ex_Activtation_ramp_000002_data_000017.dat
#       q_nm^-1             I
  2.003187e-02    0.000000e+00
  1.311609e-01    8.886310e-02
  2.422899e-01    4.495687e-02
  3.534189e-01    3.453175e-02
  4.645479e-01    1.258146e-02
  5.756770e-01    5.846055e-02
  6.868060e-01    1.714653e-02
  7.979350e-01    1.853635e-01
  9.090640e-01    5.002757e-01
  1.020193e+00    1.098586e+00
  1.131322e+00    1.493558e+00
  1.242451e+00    2.227928e+00
  1.353580e+00    2.636767e+00
  1.464709e+00    2.872389e+00
  1.575838e+00    2.947052e+00
  1.686967e+00    3.224229e+00
  1.798096e+00    2.945047e+00
  1.909225e+00    2.870627e+00
  2.020354e+00    2.864744e+00
  2.131483e+00    2.807678e+00
  2.242612e+00    2.955177e+00
  2.353741e+00    2.874071e+00
  2.464870e+00    2.829387e+00
  2.575999e+00    2.948660e+00
  2.687128e+00    2.787640e+00
  2.798257e+00    2.986924e+00
  2.909386e+00    2.934849e+00
  3.020515e+00    2.904849e+00
  3.131644e+00    3.028688e+00
  3.242773e+00    2.964185e+00
  3.353902e+00    2.948274e+00
  3.465031e+00    2.998589e+00
  3.576160e+00    2.958657e+00
  3.687289e+00    2.911688e+00
  3.798418e+00    3.046233e+00
  3.909547e+00    3.034519e+00
  4.020676e+00    2.968963e+00
  4.131806e+00    2.965061e+00
  4.242935e+00    3.086494e+00
  4.354064e+00    3.068051e+00
  4.465193e+00    3.121496e+00
  4.576322e+00    3.141047e+00
  4.687451e+00    3.143201e+00
  4.798580e+00    3.165229e+00
  4.909709e+00    3.105580e+00
  5.020838e+00    3.117975e+00
  5.131967e+00    3.155081e+00
  5.243096e+00    3.214668e+00
  5.354225e+00    3.211449e+00
  5.465354e+00    3.152005e+00
  5.576483e+00    3.090428e+00
  5.687612e+00    3.124547e+00
  5.798741e+00    3.031279e+00
  5.909870e+00    3.049490e+00
  6.020999e+00    3.031065e+00
  6.132128e+00    3.085851e+00
  6.243257e+00    3.118882e+00
  6.354386e+00    3.036963e+00
  6.465515e+00    2.998883e+00
  6.576644e+00    3.056462e+00
  6.687773e+00    3.008041e+00
  6.798902e+00    3.018814e+00
  6.910031e+00    3.097214e+00
  7.021160e+00    2.995834e+00
  7.132289e+00    3.010413e+00
  7.243418e+00    3.049826e+00
  7.354547e+00    3.000256e+00
  7.465676e+00    3.018593e+00
  7.576805e+00    3.027847e+00
  7.687934e+00    3.080162e+00
  7.799063e+00    2.879705e+00
  7.910192e+00    2.957356e+00
  8.021321e+00    2.961093e+00
  8.132450e+00    2.907644e+00
  8.243579e+00    2.929736e+00
  8.354708e+00    2.975119e+00
  8.465837e+00    2.972797e+00
  8.576966e+00    2.892131e+00
  8.688095e+00    2.868769e+00
  8.799224e+00    2.881716e+00
  8.910353e+00    2.806200e+00
  9.021482e+00    2.866574e+00
  9.132611e+00    2.848222e+00
  9.243740e+00    2.829176e+00
  9.354869e+00    2.780286e+00
  9.465998e+00    2.814636e+00
  9.577127e+00    2.778357e+00
  9.688256e+00    2.797857e+00
  9.799385e+00    2.781328e+00
  9.910514e+00    2.809036e+00
  1.002164e+01    2.725245e+00
  1.013277e+01    2.611391e+00
  1.024390e+01    2.645219e+00
  1.035503e+01    2.617261e+00
  1.046616e+01    2.575137e+00
  1.057729e+01    2.601605e+00
  1.068842e+01    2.609919e+00
  1.079955e+01    2.504059e+00
  1.091068e+01    2.555521e+00
  1.102180e+01    2.496199e+00
  1.113293e+01    2.522090e+00
  1.124406e+01    2.457762e+00
  1.135519e+01    2.412803e+00
  1.146632e+01    2.427652e+00
  1.157745e+01    2.407589e+00
  1.168858e+01    2.466870e+00
  1.179971e+01    2.393163e+00
  1.191084e+01    2.402129e+00
  1.202197e+01    2.347806e+00
  1.213309e+01    2.336115e+00
  1.224422e+01    2.351593e+00
  1.235535e+01    2.368757e+00
  1.246648e+01    2.374995e+00
  1.257761e+01    2.399461e+00
  1.268874e+01    2.490134e+00
  1.279987e+01    2.731077e+00
  1.291100e+01    3.239411e+00
  1.302213e+01    5.890931e+00
  1.313326e+01    1.491871e+01
  1.324438e+01    1.649926e+01
  1.335551e+01    5.526660e+00
  1.346664e+01    3.225667e+00
  1.357777e+01    2.655646e+00
  1.368890e+01    2.322307e+00
  1.380003e+01    2.209583e+00
  1.391116e+01    2.149493e+00
  1.402229e+01    2.041084e+00
  1.413342e+01    2.063369e+00
  1.424455e+01    2.005239e+00
  1.435568e+01    1.968534e+00
  1.446680e+01    1.973745e+00
  1.457793e+01    1.939232e+00
  1.468906e+01    1.925981e+00
  1.480019e+01    1.909739e+00
  1.491132e+01    1.955413e+00
  1.502245e+01    2.217526e+00
  1.513358e+01    3.194269e+00
  1.524471e+01    6.005442e+00
  1.535584e+01    5.114897e+00
  1.546697e+01    2.548007e+00
  1.557809e+01    1.993413e+00
  1.568922e+01    1.821108e+00
  1.580035e+01    1.733335e+00
  1.591148e+01    1.660417e+00
  1.602261e+01    1.591717e+00
  1.613374e+01    1.603483e+00
  1.624487e+01    1.580896e+00
  1.635600e+01    1.550797e+00
  1.646713e+01    1.524346e+00
  1.657826e+01    1.502937e+00
  1.668938e+01    1.485129e+00
  1.680051e+01    1.491094e+00
  1.691164e+01    1.486454e+00
  1.702277e+01    1.464334e+00
  1.713390e+01    1.423445e+00
  1.724503e+01    1.389234e+00
  1.735616e+01    1.400298e+00
  1.746729e+01    1.374295e+00
  1.757842e+01    1.341066e+00
  1.768955e+01    1.350196e+00
  1.780067e+01    1.350869e+00
  1.791180e+01    1.336349e+00
  1.802293e+01    1.304406e+00
  1.813406e+01    1.280320e+00
  1.824519e+01    1.321482e+00
  1.835632e+01    1.283247e+00
  1.846745e+01    1.292547e+00
  1.857858e+01    1.246124e+00
  1.868971e+01    1.216901e+00
  1.880084e+01    1.262059e+00
  1.891196e+01    1.236741e+00
  1.902309e+01    1.210034e+00
  1.913422e+01    1.187112e+00
  1.924535e+01    1.203062e+00
  1.935648e+01    1.180463e+00
  1.946761e+01    1.191514e+00
  1.957874e+01    1.151756e+00
  1.968987e+01    1.169017e+00
  1.980100e+01    1.128651e+00
  1.991213e+01    1.167912e+00
  2.002325e+01    1.147730e+00
  2.013438e+01    1.119170e+00
  2.024551e+01    1.112200e+00
  2.035664e+01    1.104280e+00
  2.046777e+01    1.091841e+00
  2.057890e+01    1.110729e+00
  2.069003e+01    1.082588e+00
  2.080116e+01    1.112347e+00
  2.091229e+01    1.109058e+00
  2.102342e+01    1.085346e+00
  2.113455e+01    1.102811e+00
  2.124567e+01    1.107314e+00
  2.135680e+01    1.186312e+00
  2.146793e+01    1.241346e+00
  2.157906e+01    1.446729e+00
  2.169019e+01    2.100226e+00
  2.180132e+01    4.748920e+00
  2.191245e+01    1.050693e+01
  2.202358e+01    6.314511e+00
  2.213471e+01    2.389448e+00
  2.224584e+01    1.471804e+00
  2.235696e+01    1.213183e+00
  2.246809e+01    1.100676e+00
  2.257922e+01    1.034004e+00
  2.269035e+01    9.989473e-01
  2.280148e+01    9.731266e-01
  2.291261e+01    9.402270e-01
  2.302374e+01    9.078833e-01
  2.313487e+01    9.018894e-01
  2.324600e+01    8.942755e-01
  2.335713e+01    9.012922e-01
  2.346825e+01    8.458658e-01
  2.357938e+01    8.594373e-01
  2.369051e+01    8.437836e-01
  2.380164e+01    8.359088e-01
  2.391277e+01    8.364652e-01
  2.402390e+01    7.885768e-01
  2.413503e+01    7.959116e-01
  2.424616e+01    8.043182e-01
  2.435729e+01    8.036370e-01
  2.446842e+01    8.039138e-01
  2.457954e+01    8.005584e-01
  2.469067e+01    8.014318e-01
  2.480180e+01    8.175825e-01
  2.491293e+01    8.260456e-01
  2.502406e+01    8.304846e-01
  2.513519e+01    8.342467e-01
  2.524632e+01    8.696836e-01
  2.535745e+01    8.850150e-01
  2.546858e+01    9.418278e-01
  2.557971e+01    1.080657e+00
  2.569083e+01    1.317163e+00
  2.580196e+01    2.204963e+00
  2.591309e+01    5.477431e+00
  2.602422e+01    9.083567e+00
  2.613535e+01    3.637777e+00
  2.624648e+01    1.730169e+00
  2.635761e+01    1.199888e+00
  2.646874e+01    1.050218e+00
  2.657987e+01    9.681692e-01
  2.669100e+01    9.317459e-01
  2.680212e+01    9.307201e-01
  2.691325e+01    9.240440e-01
  2.702438e+01    1.044348e+00
  2.713551e+01    1.456864e+00
  2.724664e+01    2.530414e+00
  2.735777e+01    1.817463e+00
  2.746890e+01    1.127429e+00
  2.758003e+01    9.224267e-01
  2.769116e+01    8.632555e-01
  2.780229e+01    8.620805e-01
  2.791342e+01    8.434724e-01
  2.802454e+01    7.884010e-01
  2.813567e+01    8.014751e-01
  2.824680e+01    8.038761e-01
  2.835793e+01    7.747922e-01
  2.846906e+01    7.823711e-01
  2.858019e+01    7.902027e-01
  2.869132e+01    7.716333e-01
  2.880245e+01    7.573819e-01
  2.891358e+01    7.705674e-01
  2.902471e+01    7.563047e-01
  2.913583e+01    7.484993e-01
  2.924696e+01    7.498611e-01
  2.935809e+01    7.474499e-01
  2.946922e+01    7.467121e-01
  2.958035e+01    6.983145e-01
  2.969148e+01    7.462743e-01
  2.980261e+01    7.340460e-01
  2.991374e+01    7.468404e-01
  3.002487e+01    7.446092e-01
  3.013600e+01    7.316701e-01
  3.024712e+01    7.150148e-01
  3.035825e+01    7.318119e-01
  3.046938e+01    7.287470e-01
  3.058051e+01    7.341869e-01
  3.069164e+01    7.236906e-01
  3.080277e+01    7.298436e-01
  3.091390e+01    7.363095e-01
  3.102503e+01    7.370772e-01
  3.113616e+01    7.124807e-01
  3.124729e+01    7.477693e-01
  3.135841e+01    7.657717e-01
  3.146954e+01    7.694232e-01
  3.158067e+01    7.969203e-01
  3.169180e+01    8.868846e-01
  3.180293e+01    1.189747e+00
  3.191406e+01    2.228750e+00
  3.202519e+01    2.198389e+00
  3.213632e+01    1.114591e+00
  3.224745e+01    8.711099e-01
  3.235858e+01    7.717428e-01
  3.246970e+01    7.493804e-01
  3.254908e+01    7.656469e-01