File: XRD/2024-07-27_002_Ru-CGO-ex_Activtation_ramp_000002_data_000089.dat
# == pyFAI calibration ==
# Distance Sample to Detector: 0.4 m
# PONI: 9.750e-02, 1.135e-01 m
# Rotations: -0.000175 0.000000 -0.000000 rad
#
# == Fit2d calibration ==
# Distance Sample-beamCenter: 400.000 mm
# Center: x=1514.000, y=1300.000 pix
# Tilt: 0.010 deg  TiltPlanRot: 0.010 deg
#
# Detector Detector	 Spline= None	 PixelSize= 7.500e-05, 7.500e-05 m
#    Detector has a mask: False
#    Detector has a dark current: False
#    detector has a flat field: False
#
# Wavelength: 6.888e-11 m
# Mask applied: user provided
# Dark current applied: False
# Flat field applied: False
# Polarization factor: 0.99
# Normalization factor: 1.0
# --> /home/myspot/data/2024_07_Rosario/Ru-CGO-ex/2024-07-27_002_Ru-CGO-ex_Activtation_ramp_000002_data_000089.dat
#       q_nm^-1             I
  2.003187e-02    0.000000e+00
  1.311609e-01    1.689322e-02
  2.422899e-01    4.227458e-02
  3.534189e-01    4.429702e-02
  4.645479e-01    3.492605e-02
  5.756770e-01    6.331811e-02
  6.868060e-01    5.459943e-02
  7.979350e-01    1.614953e-01
  9.090640e-01    5.920224e-01
  1.020193e+00    9.017981e-01
  1.131322e+00    1.463256e+00
  1.242451e+00    2.253095e+00
  1.353580e+00    2.623752e+00
  1.464709e+00    2.909094e+00
  1.575838e+00    3.069541e+00
  1.686967e+00    2.818176e+00
  1.798096e+00    2.745287e+00
  1.909225e+00    2.728658e+00
  2.020354e+00    2.757903e+00
  2.131483e+00    2.700151e+00
  2.242612e+00    2.802531e+00
  2.353741e+00    2.723939e+00
  2.464870e+00    2.654803e+00
  2.575999e+00    2.899700e+00
  2.687128e+00    2.679393e+00
  2.798257e+00    2.728687e+00
  2.909386e+00    2.761402e+00
  3.020515e+00    2.736137e+00
  3.131644e+00    2.924140e+00
  3.242773e+00    2.918687e+00
  3.353902e+00    2.923158e+00
  3.465031e+00    2.866051e+00
  3.576160e+00    2.882586e+00
  3.687289e+00    2.981579e+00
  3.798418e+00    2.901275e+00
  3.909547e+00    3.021387e+00
  4.020676e+00    2.981765e+00
  4.131806e+00    2.985911e+00
  4.242935e+00    2.994856e+00
  4.354064e+00    2.999712e+00
  4.465193e+00    3.112276e+00
  4.576322e+00    3.109619e+00
  4.687451e+00    3.060382e+00
  4.798580e+00    2.948700e+00
  4.909709e+00    3.038209e+00
  5.020838e+00    3.040726e+00
  5.131967e+00    3.150149e+00
  5.243096e+00    3.055649e+00
  5.354225e+00    3.112739e+00
  5.465354e+00    2.983888e+00
  5.576483e+00    3.084603e+00
  5.687612e+00    3.107994e+00
  5.798741e+00    2.978089e+00
  5.909870e+00    3.006664e+00
  6.020999e+00    2.949530e+00
  6.132128e+00    3.006139e+00
  6.243257e+00    2.953230e+00
  6.354386e+00    2.959255e+00
  6.465515e+00    3.001791e+00
  6.576644e+00    2.970431e+00
  6.687773e+00    2.974345e+00
  6.798902e+00    3.034843e+00
  6.910031e+00    2.945282e+00
  7.021160e+00    2.950774e+00
  7.132289e+00    2.965201e+00
  7.243418e+00    3.024593e+00
  7.354547e+00    2.941742e+00
  7.465676e+00    2.952389e+00
  7.576805e+00    2.889068e+00
  7.687934e+00    2.875711e+00
  7.799063e+00    2.892559e+00
  7.910192e+00    2.863652e+00
  8.021321e+00    2.889821e+00
  8.132450e+00    2.858219e+00
  8.243579e+00    2.962677e+00
  8.354708e+00    2.873213e+00
  8.465837e+00    2.888946e+00
  8.576966e+00    2.770537e+00
  8.688095e+00    2.825885e+00
  8.799224e+00    2.809001e+00
  8.910353e+00    2.819723e+00
  9.021482e+00    2.744568e+00
  9.132611e+00    2.715691e+00
  9.243740e+00    2.832031e+00
  9.354869e+00    2.710558e+00
  9.465998e+00    2.697971e+00
  9.577127e+00    2.690309e+00
  9.688256e+00    2.725210e+00
  9.799385e+00    2.686645e+00
  9.910514e+00    2.677638e+00
  1.002164e+01    2.629958e+00
  1.013277e+01    2.609893e+00
  1.024390e+01    2.572809e+00
  1.035503e+01    2.598567e+00
  1.046616e+01    2.544369e+00
  1.057729e+01    2.553989e+00
  1.068842e+01    2.497750e+00
  1.079955e+01    2.532264e+00
  1.091068e+01    2.462935e+00
  1.102180e+01    2.448215e+00
  1.113293e+01    2.472403e+00
  1.124406e+01    2.386602e+00
  1.135519e+01    2.367564e+00
  1.146632e+01    2.381222e+00
  1.157745e+01    2.350339e+00
  1.168858e+01    2.364834e+00
  1.179971e+01    2.345974e+00
  1.191084e+01    2.334668e+00
  1.202197e+01    2.294056e+00
  1.213309e+01    2.335497e+00
  1.224422e+01    2.298014e+00
  1.235535e+01    2.266693e+00
  1.246648e+01    2.305772e+00
  1.257761e+01    2.297691e+00
  1.268874e+01    2.351969e+00
  1.279987e+01    2.612396e+00
  1.291100e+01    3.267370e+00
  1.302213e+01    5.974564e+00
  1.313326e+01    1.480250e+01
  1.324438e+01    1.340100e+01
  1.335551e+01    4.628461e+00
  1.346664e+01    2.935162e+00
  1.357777e+01    2.447417e+00
  1.368890e+01    2.299686e+00
  1.380003e+01    2.172182e+00
  1.391116e+01    2.089842e+00
  1.402229e+01    2.048731e+00
  1.413342e+01    2.011355e+00
  1.424455e+01    1.982726e+00
  1.435568e+01    1.955110e+00
  1.446680e+01    1.923270e+00
  1.457793e+01    1.883494e+00
  1.468906e+01    1.879039e+00
  1.480019e+01    1.897051e+00
  1.491132e+01    1.911140e+00
  1.502245e+01    2.180292e+00
  1.513358e+01    3.298856e+00
  1.524471e+01    5.792331e+00
  1.535584e+01    4.243279e+00
  1.546697e+01    2.282466e+00
  1.557809e+01    1.886615e+00
  1.568922e+01    1.755099e+00
  1.580035e+01    1.683009e+00
  1.591148e+01    1.625186e+00
  1.602261e+01    1.609993e+00
  1.613374e+01    1.554814e+00
  1.624487e+01    1.532717e+00
  1.635600e+01    1.545947e+00
  1.646713e+01    1.471306e+00
  1.657826e+01    1.477317e+00
  1.668938e+01    1.479764e+00
  1.680051e+01    1.430631e+00
  1.691164e+01    1.447094e+00
  1.702277e+01    1.402966e+00
  1.713390e+01    1.390545e+00
  1.724503e+01    1.406380e+00
  1.735616e+01    1.363602e+00
  1.746729e+01    1.332366e+00
  1.757842e+01    1.352003e+00
  1.768955e+01    1.318645e+00
  1.780067e+01    1.298542e+00
  1.791180e+01    1.284712e+00
  1.802293e+01    1.279639e+00
  1.813406e+01    1.278041e+00
  1.824519e+01    1.273408e+00
  1.835632e+01    1.238041e+00
  1.846745e+01    1.230362e+00
  1.857858e+01    1.215870e+00
  1.868971e+01    1.234434e+00
  1.880084e+01    1.178243e+00
  1.891196e+01    1.186425e+00
  1.902309e+01    1.190999e+00
  1.913422e+01    1.179630e+00
  1.924535e+01    1.154132e+00
  1.935648e+01    1.152692e+00
  1.946761e+01    1.145726e+00
  1.957874e+01    1.136438e+00
  1.968987e+01    1.106242e+00
  1.980100e+01    1.107812e+00
  1.991213e+01    1.101893e+00
  2.002325e+01    1.109973e+00
  2.013438e+01    1.099332e+00
  2.024551e+01    1.087866e+00
  2.035664e+01    1.100656e+00
  2.046777e+01    1.063815e+00
  2.057890e+01    1.072615e+00
  2.069003e+01    1.091009e+00
  2.080116e+01    1.067695e+00
  2.091229e+01    1.066727e+00
  2.102342e+01    1.070240e+00
  2.113455e+01    1.085232e+00
  2.124567e+01    1.074392e+00
  2.135680e+01    1.097948e+00
  2.146793e+01    1.247252e+00
  2.157906e+01    1.442458e+00
  2.169019e+01    2.230390e+00
  2.180132e+01    5.206512e+00
  2.191245e+01    9.897504e+00
  2.202358e+01    4.554318e+00
  2.213471e+01    1.968999e+00
  2.224584e+01    1.345555e+00
  2.235696e+01    1.132272e+00
  2.246809e+01    1.045003e+00
  2.257922e+01    1.003723e+00
  2.269035e+01    9.480461e-01
  2.280148e+01    9.331158e-01
  2.291261e+01    9.046267e-01
  2.302374e+01    8.844411e-01
  2.313487e+01    8.631576e-01
  2.324600e+01    8.531236e-01
  2.335713e+01    8.653534e-01
  2.346825e+01    8.555051e-01
  2.357938e+01    8.313975e-01
  2.369051e+01    8.212267e-01
  2.380164e+01    8.137681e-01
  2.391277e+01    7.941909e-01
  2.402390e+01    7.962063e-01
  2.413503e+01    7.576497e-01
  2.424616e+01    7.845582e-01
  2.435729e+01    7.782954e-01
  2.446842e+01    7.629901e-01
  2.457954e+01    7.722238e-01
  2.469067e+01    7.982816e-01
  2.480180e+01    7.776556e-01
  2.491293e+01    7.893344e-01
  2.502406e+01    7.843860e-01
  2.513519e+01    8.139999e-01
  2.524632e+01    8.404239e-01
  2.535745e+01    8.537298e-01
  2.546858e+01    9.694289e-01
  2.557971e+01    1.080479e+00
  2.569083e+01    1.353238e+00
  2.580196e+01    2.459685e+00
  2.591309e+01    6.094121e+00
  2.602422e+01    7.179575e+00
  2.613535e+01    2.597571e+00
  2.624648e+01    1.397146e+00
  2.635761e+01    1.100983e+00
  2.646874e+01    9.764499e-01
  2.657987e+01    9.111044e-01
  2.669100e+01    8.791311e-01
  2.680212e+01    8.826555e-01
  2.691325e+01    9.109699e-01
  2.702438e+01    1.022685e+00
  2.713551e+01    1.560525e+00
  2.724664e+01    2.377614e+00
  2.735777e+01    1.441067e+00
  2.746890e+01    9.883714e-01
  2.758003e+01    8.811882e-01
  2.769116e+01    8.231154e-01
  2.780229e+01    8.432636e-01
  2.791342e+01    8.083009e-01
  2.802454e+01    7.802643e-01
  2.813567e+01    7.694384e-01
  2.824680e+01    7.747671e-01
  2.835793e+01    7.525144e-01
  2.846906e+01    7.701628e-01
  2.858019e+01    7.554384e-01
  2.869132e+01    7.525514e-01
  2.880245e+01    7.287521e-01
  2.891358e+01    7.381983e-01
  2.902471e+01    7.171280e-01
  2.913583e+01    7.362078e-01
  2.924696e+01    7.208059e-01
  2.935809e+01    7.365463e-01
  2.946922e+01    7.245921e-01
  2.958035e+01    7.271650e-01
  2.969148e+01    7.164875e-01
  2.980261e+01    7.128016e-01
  2.991374e+01    6.989346e-01
  3.002487e+01    7.227504e-01
  3.013600e+01    7.263701e-01
  3.024712e+01    6.903341e-01
  3.035825e+01    6.997965e-01
  3.046938e+01    7.041600e-01
  3.058051e+01    7.034700e-01
  3.069164e+01    7.062523e-01
  3.080277e+01    6.853961e-01
  3.091390e+01    6.992174e-01
  3.102503e+01    7.130506e-01
  3.113616e+01    7.153823e-01
  3.124729e+01    7.110852e-01
  3.135841e+01    7.229387e-01
  3.146954e+01    7.558663e-01
  3.158067e+01    7.768867e-01
  3.169180e+01    9.157702e-01
  3.180293e+01    1.293224e+00
  3.191406e+01    2.294346e+00
  3.202519e+01    1.639226e+00
  3.213632e+01    9.619004e-01
  3.224745e+01    7.939943e-01
  3.235858e+01    7.552516e-01
  3.246970e+01    7.113561e-01
  3.254908e+01    7.110068e-01