File: XRD/2024-07-27_002_Ru-CGO-ex_Activtation_ramp_000002_data_000187.dat
# == pyFAI calibration ==
# Distance Sample to Detector: 0.4 m
# PONI: 9.750e-02, 1.135e-01 m
# Rotations: -0.000175 0.000000 -0.000000 rad
#
# == Fit2d calibration ==
# Distance Sample-beamCenter: 400.000 mm
# Center: x=1514.000, y=1300.000 pix
# Tilt: 0.010 deg  TiltPlanRot: 0.010 deg
#
# Detector Detector	 Spline= None	 PixelSize= 7.500e-05, 7.500e-05 m
#    Detector has a mask: False
#    Detector has a dark current: False
#    detector has a flat field: False
#
# Wavelength: 6.888e-11 m
# Mask applied: user provided
# Dark current applied: False
# Flat field applied: False
# Polarization factor: 0.99
# Normalization factor: 1.0
# --> /home/myspot/data/2024_07_Rosario/Ru-CGO-ex/2024-07-27_002_Ru-CGO-ex_Activtation_ramp_000002_data_000187.dat
#       q_nm^-1             I
  2.003187e-02    0.000000e+00
  1.311609e-01    4.075564e-02
  2.422899e-01    3.009386e-02
  3.534189e-01    3.702474e-02
  4.645479e-01    5.843154e-02
  5.756770e-01    2.963918e-02
  6.868060e-01    3.168431e-02
  7.979350e-01    1.539496e-01
  9.090640e-01    6.112446e-01
  1.020193e+00    1.111242e+00
  1.131322e+00    1.476916e+00
  1.242451e+00    2.028517e+00
  1.353580e+00    2.321509e+00
  1.464709e+00    2.669514e+00
  1.575838e+00    2.917389e+00
  1.686967e+00    2.699592e+00
  1.798096e+00    2.726311e+00
  1.909225e+00    2.720436e+00
  2.020354e+00    2.683722e+00
  2.131483e+00    2.776231e+00
  2.242612e+00    2.823999e+00
  2.353741e+00    2.812527e+00
  2.464870e+00    2.717433e+00
  2.575999e+00    2.788001e+00
  2.687128e+00    2.814912e+00
  2.798257e+00    2.787866e+00
  2.909386e+00    2.908065e+00
  3.020515e+00    2.950721e+00
  3.131644e+00    2.900655e+00
  3.242773e+00    2.978737e+00
  3.353902e+00    2.929828e+00
  3.465031e+00    2.902901e+00
  3.576160e+00    2.932387e+00
  3.687289e+00    3.020515e+00
  3.798418e+00    3.034321e+00
  3.909547e+00    2.952804e+00
  4.020676e+00    3.011934e+00
  4.131806e+00    3.024304e+00
  4.242935e+00    3.037393e+00
  4.354064e+00    3.039731e+00
  4.465193e+00    3.038824e+00
  4.576322e+00    3.047942e+00
  4.687451e+00    3.149489e+00
  4.798580e+00    3.105399e+00
  4.909709e+00    3.057181e+00
  5.020838e+00    3.090065e+00
  5.131967e+00    3.206322e+00
  5.243096e+00    3.189362e+00
  5.354225e+00    3.108444e+00
  5.465354e+00    3.102151e+00
  5.576483e+00    3.081760e+00
  5.687612e+00    3.148418e+00
  5.798741e+00    3.058714e+00
  5.909870e+00    3.061129e+00
  6.020999e+00    2.984018e+00
  6.132128e+00    3.075665e+00
  6.243257e+00    2.988506e+00
  6.354386e+00    3.144077e+00
  6.465515e+00    3.045123e+00
  6.576644e+00    3.040099e+00
  6.687773e+00    3.088275e+00
  6.798902e+00    3.044936e+00
  6.910031e+00    3.020127e+00
  7.021160e+00    3.021738e+00
  7.132289e+00    2.994534e+00
  7.243418e+00    2.973639e+00
  7.354547e+00    2.998288e+00
  7.465676e+00    2.969705e+00
  7.576805e+00    2.945526e+00
  7.687934e+00    3.008106e+00
  7.799063e+00    2.893621e+00
  7.910192e+00    2.966261e+00
  8.021321e+00    2.964916e+00
  8.132450e+00    2.971903e+00
  8.243579e+00    2.998965e+00
  8.354708e+00    2.964111e+00
  8.465837e+00    2.929395e+00
  8.576966e+00    2.843872e+00
  8.688095e+00    2.888307e+00
  8.799224e+00    2.885940e+00
  8.910353e+00    2.971234e+00
  9.021482e+00    2.782073e+00
  9.132611e+00    2.809346e+00
  9.243740e+00    2.807950e+00
  9.354869e+00    2.763796e+00
  9.465998e+00    2.789742e+00
  9.577127e+00    2.811209e+00
  9.688256e+00    2.700294e+00
  9.799385e+00    2.736546e+00
  9.910514e+00    2.704156e+00
  1.002164e+01    2.697348e+00
  1.013277e+01    2.651779e+00
  1.024390e+01    2.656600e+00
  1.035503e+01    2.644571e+00
  1.046616e+01    2.603262e+00
  1.057729e+01    2.594955e+00
  1.068842e+01    2.582702e+00
  1.079955e+01    2.545462e+00
  1.091068e+01    2.515814e+00
  1.102180e+01    2.523958e+00
  1.113293e+01    2.472692e+00
  1.124406e+01    2.456349e+00
  1.135519e+01    2.413854e+00
  1.146632e+01    2.461944e+00
  1.157745e+01    2.383889e+00
  1.168858e+01    2.335641e+00
  1.179971e+01    2.370850e+00
  1.191084e+01    2.319992e+00
  1.202197e+01    2.344182e+00
  1.213309e+01    2.360157e+00
  1.224422e+01    2.326483e+00
  1.235535e+01    2.332462e+00
  1.246648e+01    2.363616e+00
  1.257761e+01    2.332907e+00
  1.268874e+01    2.432491e+00
  1.279987e+01    2.635217e+00
  1.291100e+01    3.261403e+00
  1.302213e+01    6.157919e+00
  1.313326e+01    1.405960e+01
  1.324438e+01    1.028810e+01
  1.335551e+01    4.008149e+00
  1.346664e+01    2.741171e+00
  1.357777e+01    2.448391e+00
  1.368890e+01    2.235533e+00
  1.380003e+01    2.080961e+00
  1.391116e+01    2.044172e+00
  1.402229e+01    2.024150e+00
  1.413342e+01    1.986787e+00
  1.424455e+01    1.994491e+00
  1.435568e+01    1.925175e+00
  1.446680e+01    1.927818e+00
  1.457793e+01    1.901328e+00
  1.468906e+01    1.930436e+00
  1.480019e+01    1.905918e+00
  1.491132e+01    1.967784e+00
  1.502245e+01    2.225771e+00
  1.513358e+01    3.435829e+00
  1.524471e+01    5.390419e+00
  1.535584e+01    3.520346e+00
  1.546697e+01    2.157469e+00
  1.557809e+01    1.841370e+00
  1.568922e+01    1.736214e+00
  1.580035e+01    1.698507e+00
  1.591148e+01    1.640082e+00
  1.602261e+01    1.621263e+00
  1.613374e+01    1.562105e+00
  1.624487e+01    1.603212e+00
  1.635600e+01    1.498246e+00
  1.646713e+01    1.524544e+00
  1.657826e+01    1.496869e+00
  1.668938e+01    1.477974e+00
  1.680051e+01    1.432550e+00
  1.691164e+01    1.464187e+00
  1.702277e+01    1.444385e+00
  1.713390e+01    1.417513e+00
  1.724503e+01    1.408087e+00
  1.735616e+01    1.382031e+00
  1.746729e+01    1.353892e+00
  1.757842e+01    1.362983e+00
  1.768955e+01    1.351020e+00
  1.780067e+01    1.324469e+00
  1.791180e+01    1.324728e+00
  1.802293e+01    1.281794e+00
  1.813406e+01    1.305006e+00
  1.824519e+01    1.304147e+00
  1.835632e+01    1.277903e+00
  1.846745e+01    1.232238e+00
  1.857858e+01    1.285841e+00
  1.868971e+01    1.241579e+00
  1.880084e+01    1.226365e+00
  1.891196e+01    1.201904e+00
  1.902309e+01    1.197247e+00
  1.913422e+01    1.176723e+00
  1.924535e+01    1.202931e+00
  1.935648e+01    1.171370e+00
  1.946761e+01    1.171307e+00
  1.957874e+01    1.177059e+00
  1.968987e+01    1.108837e+00
  1.980100e+01    1.126475e+00
  1.991213e+01    1.115099e+00
  2.002325e+01    1.104115e+00
  2.013438e+01    1.128914e+00
  2.024551e+01    1.109508e+00
  2.035664e+01    1.140661e+00
  2.046777e+01    1.074658e+00
  2.057890e+01    1.069076e+00
  2.069003e+01    1.073553e+00
  2.080116e+01    1.088753e+00
  2.091229e+01    1.062431e+00
  2.102342e+01    1.068620e+00
  2.113455e+01    1.087253e+00
  2.124567e+01    1.115234e+00
  2.135680e+01    1.130193e+00
  2.146793e+01    1.226865e+00
  2.157906e+01    1.498816e+00
  2.169019e+01    2.385504e+00
  2.180132e+01    5.612379e+00
  2.191245e+01    8.547659e+00
  2.202358e+01    3.360452e+00
  2.213471e+01    1.691104e+00
  2.224584e+01    1.240182e+00
  2.235696e+01    1.116520e+00
  2.246809e+01    1.011536e+00
  2.257922e+01    9.740595e-01
  2.269035e+01    9.638343e-01
  2.280148e+01    9.265357e-01
  2.291261e+01    9.202331e-01
  2.302374e+01    8.939363e-01
  2.313487e+01    8.786309e-01
  2.324600e+01    8.645034e-01
  2.335713e+01    8.591030e-01
  2.346825e+01    8.556576e-01
  2.357938e+01    8.725560e-01
  2.369051e+01    8.596074e-01
  2.380164e+01    8.005735e-01
  2.391277e+01    7.931091e-01
  2.402390e+01    7.822071e-01
  2.413503e+01    7.831767e-01
  2.424616e+01    7.886007e-01
  2.435729e+01    7.901876e-01
  2.446842e+01    8.027570e-01
  2.457954e+01    7.940081e-01
  2.469067e+01    7.998669e-01
  2.480180e+01    7.931314e-01
  2.491293e+01    7.878354e-01
  2.502406e+01    7.972636e-01
  2.513519e+01    8.107895e-01
  2.524632e+01    8.415283e-01
  2.535745e+01    8.690817e-01
  2.546858e+01    9.408066e-01
  2.557971e+01    1.065686e+00
  2.569083e+01    1.423911e+00
  2.580196e+01    2.704133e+00
  2.591309e+01    6.266696e+00
  2.602422e+01    5.182729e+00
  2.613535e+01    1.974171e+00
  2.624648e+01    1.234714e+00
  2.635761e+01    1.016977e+00
  2.646874e+01    9.364745e-01
  2.657987e+01    8.789191e-01
  2.669100e+01    8.882884e-01
  2.680212e+01    8.777010e-01
  2.691325e+01    9.174225e-01
  2.702438e+01    1.039690e+00
  2.713551e+01    1.630136e+00
  2.724664e+01    2.003462e+00
  2.735777e+01    1.201449e+00
  2.746890e+01    9.050481e-01
  2.758003e+01    8.315781e-01
  2.769116e+01    7.820964e-01
  2.780229e+01    7.880526e-01
  2.791342e+01    7.869498e-01
  2.802454e+01    7.777219e-01
  2.813567e+01    7.620583e-01
  2.824680e+01    7.667980e-01
  2.835793e+01    7.510774e-01
  2.846906e+01    7.601441e-01
  2.858019e+01    7.591168e-01
  2.869132e+01    7.233930e-01
  2.880245e+01    7.353119e-01
  2.891358e+01    7.314206e-01
  2.902471e+01    7.247660e-01
  2.913583e+01    7.184287e-01
  2.924696e+01    7.123393e-01
  2.935809e+01    7.090912e-01
  2.946922e+01    6.994674e-01
  2.958035e+01    7.134395e-01
  2.969148e+01    7.133415e-01
  2.980261e+01    7.170880e-01
  2.991374e+01    6.889184e-01
  3.002487e+01    7.293441e-01
  3.013600e+01    7.296200e-01
  3.024712e+01    7.067491e-01
  3.035825e+01    7.100031e-01
  3.046938e+01    7.153625e-01
  3.058051e+01    7.014877e-01
  3.069164e+01    7.088043e-01
  3.080277e+01    6.965023e-01
  3.091390e+01    7.114674e-01
  3.102503e+01    6.830093e-01
  3.113616e+01    6.979815e-01
  3.124729e+01    7.452561e-01
  3.135841e+01    7.334685e-01
  3.146954e+01    7.389428e-01
  3.158067e+01    7.787855e-01
  3.169180e+01    9.260616e-01
  3.180293e+01    1.397848e+00
  3.191406e+01    2.073052e+00
  3.202519e+01    1.247349e+00
  3.213632e+01    8.720445e-01
  3.224745e+01    7.848974e-01
  3.235858e+01    7.502354e-01
  3.246970e+01    7.179861e-01
  3.254908e+01    7.233856e-01