File: XRD/2024-07-27_002_Ru-CGO-ex_Activtation_ramp_000002_data_000026.dat
# == pyFAI calibration ==
# Distance Sample to Detector: 0.4 m
# PONI: 9.750e-02, 1.135e-01 m
# Rotations: -0.000175 0.000000 -0.000000 rad
#
# == Fit2d calibration ==
# Distance Sample-beamCenter: 400.000 mm
# Center: x=1514.000, y=1300.000 pix
# Tilt: 0.010 deg  TiltPlanRot: 0.010 deg
#
# Detector Detector	 Spline= None	 PixelSize= 7.500e-05, 7.500e-05 m
#    Detector has a mask: False
#    Detector has a dark current: False
#    detector has a flat field: False
#
# Wavelength: 6.888e-11 m
# Mask applied: user provided
# Dark current applied: False
# Flat field applied: False
# Polarization factor: 0.99
# Normalization factor: 1.0
# --> /home/myspot/data/2024_07_Rosario/Ru-CGO-ex/2024-07-27_002_Ru-CGO-ex_Activtation_ramp_000002_data_000026.dat
#       q_nm^-1             I
  2.003187e-02    0.000000e+00
  1.311609e-01    1.359071e-02
  2.422899e-01    6.128873e-02
  3.534189e-01    3.531667e-02
  4.645479e-01    3.332130e-02
  5.756770e-01    4.364582e-02
  6.868060e-01    2.606203e-02
  7.979350e-01    1.699279e-01
  9.090640e-01    6.188316e-01
  1.020193e+00    1.068107e+00
  1.131322e+00    1.317499e+00
  1.242451e+00    2.325534e+00
  1.353580e+00    2.659231e+00
  1.464709e+00    2.796437e+00
  1.575838e+00    2.948001e+00
  1.686967e+00    2.812147e+00
  1.798096e+00    2.801949e+00
  1.909225e+00    2.860859e+00
  2.020354e+00    2.728580e+00
  2.131483e+00    2.874894e+00
  2.242612e+00    2.804380e+00
  2.353741e+00    2.851182e+00
  2.464870e+00    2.721876e+00
  2.575999e+00    2.782924e+00
  2.687128e+00    2.872767e+00
  2.798257e+00    2.922027e+00
  2.909386e+00    2.933523e+00
  3.020515e+00    2.997756e+00
  3.131644e+00    2.987482e+00
  3.242773e+00    2.967447e+00
  3.353902e+00    2.971449e+00
  3.465031e+00    3.004647e+00
  3.576160e+00    2.989483e+00
  3.687289e+00    3.043759e+00
  3.798418e+00    3.077113e+00
  3.909547e+00    3.099240e+00
  4.020676e+00    3.049350e+00
  4.131806e+00    3.081683e+00
  4.242935e+00    3.005979e+00
  4.354064e+00    3.038884e+00
  4.465193e+00    3.092772e+00
  4.576322e+00    3.015404e+00
  4.687451e+00    3.159486e+00
  4.798580e+00    3.093302e+00
  4.909709e+00    3.119781e+00
  5.020838e+00    3.105151e+00
  5.131967e+00    3.144952e+00
  5.243096e+00    3.194201e+00
  5.354225e+00    3.152237e+00
  5.465354e+00    3.125611e+00
  5.576483e+00    3.080583e+00
  5.687612e+00    3.096346e+00
  5.798741e+00    3.040277e+00
  5.909870e+00    3.064337e+00
  6.020999e+00    3.020672e+00
  6.132128e+00    3.106577e+00
  6.243257e+00    3.106685e+00
  6.354386e+00    2.990983e+00
  6.465515e+00    3.133582e+00
  6.576644e+00    3.044671e+00
  6.687773e+00    3.064357e+00
  6.798902e+00    3.072406e+00
  6.910031e+00    3.042562e+00
  7.021160e+00    2.964826e+00
  7.132289e+00    3.052877e+00
  7.243418e+00    2.996992e+00
  7.354547e+00    3.039800e+00
  7.465676e+00    3.023827e+00
  7.576805e+00    2.959453e+00
  7.687934e+00    3.009635e+00
  7.799063e+00    2.948880e+00
  7.910192e+00    2.987172e+00
  8.021321e+00    2.961223e+00
  8.132450e+00    2.971865e+00
  8.243579e+00    2.955578e+00
  8.354708e+00    2.912291e+00
  8.465837e+00    2.983485e+00
  8.576966e+00    2.878277e+00
  8.688095e+00    2.835749e+00
  8.799224e+00    2.883098e+00
  8.910353e+00    2.881770e+00
  9.021482e+00    2.820920e+00
  9.132611e+00    2.883015e+00
  9.243740e+00    2.827334e+00
  9.354869e+00    2.819732e+00
  9.465998e+00    2.778199e+00
  9.577127e+00    2.792947e+00
  9.688256e+00    2.698927e+00
  9.799385e+00    2.728233e+00
  9.910514e+00    2.697126e+00
  1.002164e+01    2.723964e+00
  1.013277e+01    2.680734e+00
  1.024390e+01    2.639882e+00
  1.035503e+01    2.624764e+00
  1.046616e+01    2.607152e+00
  1.057729e+01    2.650563e+00
  1.068842e+01    2.622633e+00
  1.079955e+01    2.595475e+00
  1.091068e+01    2.521394e+00
  1.102180e+01    2.505311e+00
  1.113293e+01    2.497135e+00
  1.124406e+01    2.422388e+00
  1.135519e+01    2.462127e+00
  1.146632e+01    2.404260e+00
  1.157745e+01    2.460483e+00
  1.168858e+01    2.367772e+00
  1.179971e+01    2.405447e+00
  1.191084e+01    2.367905e+00
  1.202197e+01    2.314866e+00
  1.213309e+01    2.317264e+00
  1.224422e+01    2.382760e+00
  1.235535e+01    2.379184e+00
  1.246648e+01    2.384975e+00
  1.257761e+01    2.384042e+00
  1.268874e+01    2.422641e+00
  1.279987e+01    2.717812e+00
  1.291100e+01    3.316269e+00
  1.302213e+01    5.910923e+00
  1.313326e+01    1.518020e+01
  1.324438e+01    1.609497e+01
  1.335551e+01    5.381913e+00
  1.346664e+01    3.152595e+00
  1.357777e+01    2.640171e+00
  1.368890e+01    2.306408e+00
  1.380003e+01    2.246859e+00
  1.391116e+01    2.149995e+00
  1.402229e+01    2.052339e+00
  1.413342e+01    2.007689e+00
  1.424455e+01    2.013068e+00
  1.435568e+01    1.961099e+00
  1.446680e+01    1.954722e+00
  1.457793e+01    1.914095e+00
  1.468906e+01    1.893371e+00
  1.480019e+01    1.944940e+00
  1.491132e+01    1.960542e+00
  1.502245e+01    2.247461e+00
  1.513358e+01    3.260145e+00
  1.524471e+01    6.036260e+00
  1.535584e+01    4.973277e+00
  1.546697e+01    2.505433e+00
  1.557809e+01    1.938652e+00
  1.568922e+01    1.792158e+00
  1.580035e+01    1.707322e+00
  1.591148e+01    1.663079e+00
  1.602261e+01    1.627655e+00
  1.613374e+01    1.641253e+00
  1.624487e+01    1.622268e+00
  1.635600e+01    1.531789e+00
  1.646713e+01    1.532701e+00
  1.657826e+01    1.511506e+00
  1.668938e+01    1.510208e+00
  1.680051e+01    1.483192e+00
  1.691164e+01    1.462526e+00
  1.702277e+01    1.448307e+00
  1.713390e+01    1.444556e+00
  1.724503e+01    1.427712e+00
  1.735616e+01    1.400399e+00
  1.746729e+01    1.375145e+00
  1.757842e+01    1.388116e+00
  1.768955e+01    1.373504e+00
  1.780067e+01    1.336604e+00
  1.791180e+01    1.364779e+00
  1.802293e+01    1.324548e+00
  1.813406e+01    1.299563e+00
  1.824519e+01    1.291958e+00
  1.835632e+01    1.281512e+00
  1.846745e+01    1.254071e+00
  1.857858e+01    1.252868e+00
  1.868971e+01    1.237207e+00
  1.880084e+01    1.239038e+00
  1.891196e+01    1.212263e+00
  1.902309e+01    1.227162e+00
  1.913422e+01    1.212261e+00
  1.924535e+01    1.207522e+00
  1.935648e+01    1.156262e+00
  1.946761e+01    1.173410e+00
  1.957874e+01    1.179657e+00
  1.968987e+01    1.130468e+00
  1.980100e+01    1.150611e+00
  1.991213e+01    1.169375e+00
  2.002325e+01    1.144661e+00
  2.013438e+01    1.125030e+00
  2.024551e+01    1.132445e+00
  2.035664e+01    1.130964e+00
  2.046777e+01    1.117442e+00
  2.057890e+01    1.141216e+00
  2.069003e+01    1.097157e+00
  2.080116e+01    1.115440e+00
  2.091229e+01    1.125373e+00
  2.102342e+01    1.109399e+00
  2.113455e+01    1.132396e+00
  2.124567e+01    1.113044e+00
  2.135680e+01    1.169582e+00
  2.146793e+01    1.242060e+00
  2.157906e+01    1.486755e+00
  2.169019e+01    2.129927e+00
  2.180132e+01    4.855309e+00
  2.191245e+01    1.055977e+01
  2.202358e+01    5.961821e+00
  2.213471e+01    2.312085e+00
  2.224584e+01    1.463420e+00
  2.235696e+01    1.227839e+00
  2.246809e+01    1.077904e+00
  2.257922e+01    1.047193e+00
  2.269035e+01    9.993539e-01
  2.280148e+01    9.369625e-01
  2.291261e+01    9.557856e-01
  2.302374e+01    9.198163e-01
  2.313487e+01    9.063184e-01
  2.324600e+01    8.708041e-01
  2.335713e+01    8.776660e-01
  2.346825e+01    8.603383e-01
  2.357938e+01    8.851240e-01
  2.369051e+01    8.621852e-01
  2.380164e+01    8.208047e-01
  2.391277e+01    8.209465e-01
  2.402390e+01    8.078576e-01
  2.413503e+01    7.853659e-01
  2.424616e+01    7.922033e-01
  2.435729e+01    8.150174e-01
  2.446842e+01    8.012805e-01
  2.457954e+01    8.106673e-01
  2.469067e+01    8.048206e-01
  2.480180e+01    8.050424e-01
  2.491293e+01    8.083727e-01
  2.502406e+01    8.053509e-01
  2.513519e+01    8.212945e-01
  2.524632e+01    8.642269e-01
  2.535745e+01    9.047744e-01
  2.546858e+01    9.767398e-01
  2.557971e+01    1.065081e+00
  2.569083e+01    1.342776e+00
  2.580196e+01    2.235001e+00
  2.591309e+01    5.648009e+00
  2.602422e+01    8.871084e+00
  2.613535e+01    3.492506e+00
  2.624648e+01    1.658945e+00
  2.635761e+01    1.195913e+00
  2.646874e+01    1.004250e+00
  2.657987e+01    9.463347e-01
  2.669100e+01    9.136766e-01
  2.680212e+01    9.049562e-01
  2.691325e+01    9.432604e-01
  2.702438e+01    1.044168e+00
  2.713551e+01    1.483539e+00
  2.724664e+01    2.574306e+00
  2.735777e+01    1.750813e+00
  2.746890e+01    1.110594e+00
  2.758003e+01    9.267160e-01
  2.769116e+01    8.706446e-01
  2.780229e+01    8.408344e-01
  2.791342e+01    8.331920e-01
  2.802454e+01    8.183857e-01
  2.813567e+01    7.851503e-01
  2.824680e+01    7.742767e-01
  2.835793e+01    7.741281e-01
  2.846906e+01    7.667629e-01
  2.858019e+01    7.729850e-01
  2.869132e+01    7.650744e-01
  2.880245e+01    7.728230e-01
  2.891358e+01    7.531027e-01
  2.902471e+01    7.573314e-01
  2.913583e+01    7.517855e-01
  2.924696e+01    7.369689e-01
  2.935809e+01    7.764372e-01
  2.946922e+01    7.064713e-01
  2.958035e+01    7.249531e-01
  2.969148e+01    7.425396e-01
  2.980261e+01    7.341340e-01
  2.991374e+01    7.394825e-01
  3.002487e+01    7.458113e-01
  3.013600e+01    7.364154e-01
  3.024712e+01    7.301363e-01
  3.035825e+01    7.136402e-01
  3.046938e+01    7.524589e-01
  3.058051e+01    7.138603e-01
  3.069164e+01    7.186746e-01
  3.080277e+01    7.382621e-01
  3.091390e+01    7.366101e-01
  3.102503e+01    7.031077e-01
  3.113616e+01    7.198162e-01
  3.124729e+01    7.500935e-01
  3.135841e+01    7.539807e-01
  3.146954e+01    7.731758e-01
  3.158067e+01    8.032604e-01
  3.169180e+01    8.855954e-01
  3.180293e+01    1.211768e+00
  3.191406e+01    2.249392e+00
  3.202519e+01    2.103218e+00
  3.213632e+01    1.105746e+00
  3.224745e+01    8.522378e-01
  3.235858e+01    8.104630e-01
  3.246970e+01    7.400041e-01
  3.254908e+01    7.531216e-01