File: XRD/2024-07-27_002_Ru-CGO-ex_Activtation_ramp_000002_data_000039.dat
# == pyFAI calibration ==
# Distance Sample to Detector: 0.4 m
# PONI: 9.750e-02, 1.135e-01 m
# Rotations: -0.000175 0.000000 -0.000000 rad
#
# == Fit2d calibration ==
# Distance Sample-beamCenter: 400.000 mm
# Center: x=1514.000, y=1300.000 pix
# Tilt: 0.010 deg  TiltPlanRot: 0.010 deg
#
# Detector Detector	 Spline= None	 PixelSize= 7.500e-05, 7.500e-05 m
#    Detector has a mask: False
#    Detector has a dark current: False
#    detector has a flat field: False
#
# Wavelength: 6.888e-11 m
# Mask applied: user provided
# Dark current applied: False
# Flat field applied: False
# Polarization factor: 0.99
# Normalization factor: 1.0
# --> /home/myspot/data/2024_07_Rosario/Ru-CGO-ex/2024-07-27_002_Ru-CGO-ex_Activtation_ramp_000002_data_000039.dat
#       q_nm^-1             I
  2.003187e-02    0.000000e+00
  1.311609e-01    7.728762e-02
  2.422899e-01    7.071993e-02
  3.534189e-01    4.605126e-02
  4.645479e-01    6.614006e-02
  5.756770e-01    3.984749e-02
  6.868060e-01    3.922617e-02
  7.979350e-01    1.395324e-01
  9.090640e-01    5.824500e-01
  1.020193e+00    1.098206e+00
  1.131322e+00    1.475367e+00
  1.242451e+00    2.238892e+00
  1.353580e+00    2.527114e+00
  1.464709e+00    2.728046e+00
  1.575838e+00    3.020975e+00
  1.686967e+00    2.926026e+00
  1.798096e+00    2.864258e+00
  1.909225e+00    2.796273e+00
  2.020354e+00    2.772496e+00
  2.131483e+00    2.744581e+00
  2.242612e+00    2.708571e+00
  2.353741e+00    2.671714e+00
  2.464870e+00    2.875663e+00
  2.575999e+00    2.821898e+00
  2.687128e+00    2.851904e+00
  2.798257e+00    2.862404e+00
  2.909386e+00    2.902642e+00
  3.020515e+00    2.862328e+00
  3.131644e+00    3.007298e+00
  3.242773e+00    3.039071e+00
  3.353902e+00    2.909600e+00
  3.465031e+00    3.012074e+00
  3.576160e+00    2.982614e+00
  3.687289e+00    3.047519e+00
  3.798418e+00    3.002826e+00
  3.909547e+00    2.990480e+00
  4.020676e+00    3.056468e+00
  4.131806e+00    3.054876e+00
  4.242935e+00    2.991796e+00
  4.354064e+00    3.017596e+00
  4.465193e+00    3.061404e+00
  4.576322e+00    3.035524e+00
  4.687451e+00    3.070841e+00
  4.798580e+00    3.163362e+00
  4.909709e+00    3.159890e+00
  5.020838e+00    3.072947e+00
  5.131967e+00    3.186778e+00
  5.243096e+00    3.080381e+00
  5.354225e+00    3.087326e+00
  5.465354e+00    2.988920e+00
  5.576483e+00    3.163311e+00
  5.687612e+00    3.053203e+00
  5.798741e+00    3.065996e+00
  5.909870e+00    3.051640e+00
  6.020999e+00    2.995948e+00
  6.132128e+00    3.029403e+00
  6.243257e+00    3.071110e+00
  6.354386e+00    3.013826e+00
  6.465515e+00    3.095433e+00
  6.576644e+00    3.016537e+00
  6.687773e+00    3.035838e+00
  6.798902e+00    3.007882e+00
  6.910031e+00    3.009084e+00
  7.021160e+00    2.965821e+00
  7.132289e+00    2.950258e+00
  7.243418e+00    2.995304e+00
  7.354547e+00    3.028882e+00
  7.465676e+00    3.050546e+00
  7.576805e+00    3.020667e+00
  7.687934e+00    2.962424e+00
  7.799063e+00    2.995138e+00
  7.910192e+00    2.962991e+00
  8.021321e+00    2.921450e+00
  8.132450e+00    2.931213e+00
  8.243579e+00    2.971226e+00
  8.354708e+00    2.891281e+00
  8.465837e+00    2.835182e+00
  8.576966e+00    2.920035e+00
  8.688095e+00    2.904553e+00
  8.799224e+00    2.864904e+00
  8.910353e+00    2.877887e+00
  9.021482e+00    2.797003e+00
  9.132611e+00    2.823824e+00
  9.243740e+00    2.759190e+00
  9.354869e+00    2.801101e+00
  9.465998e+00    2.744553e+00
  9.577127e+00    2.708231e+00
  9.688256e+00    2.681527e+00
  9.799385e+00    2.713792e+00
  9.910514e+00    2.691512e+00
  1.002164e+01    2.674187e+00
  1.013277e+01    2.661192e+00
  1.024390e+01    2.591755e+00
  1.035503e+01    2.641343e+00
  1.046616e+01    2.601584e+00
  1.057729e+01    2.556437e+00
  1.068842e+01    2.553355e+00
  1.079955e+01    2.550882e+00
  1.091068e+01    2.550826e+00
  1.102180e+01    2.541174e+00
  1.113293e+01    2.475789e+00
  1.124406e+01    2.467570e+00
  1.135519e+01    2.432632e+00
  1.146632e+01    2.420184e+00
  1.157745e+01    2.402526e+00
  1.168858e+01    2.362957e+00
  1.179971e+01    2.405709e+00
  1.191084e+01    2.374974e+00
  1.202197e+01    2.374800e+00
  1.213309e+01    2.326118e+00
  1.224422e+01    2.342443e+00
  1.235535e+01    2.328038e+00
  1.246648e+01    2.310628e+00
  1.257761e+01    2.438651e+00
  1.268874e+01    2.426053e+00
  1.279987e+01    2.698744e+00
  1.291100e+01    3.259735e+00
  1.302213e+01    5.889454e+00
  1.313326e+01    1.514724e+01
  1.324438e+01    1.575786e+01
  1.335551e+01    5.235240e+00
  1.346664e+01    3.156682e+00
  1.357777e+01    2.591691e+00
  1.368890e+01    2.373311e+00
  1.380003e+01    2.189514e+00
  1.391116e+01    2.120887e+00
  1.402229e+01    2.081269e+00
  1.413342e+01    2.016047e+00
  1.424455e+01    2.012640e+00
  1.435568e+01    1.963482e+00
  1.446680e+01    2.003156e+00
  1.457793e+01    1.949243e+00
  1.468906e+01    1.953224e+00
  1.480019e+01    1.960256e+00
  1.491132e+01    1.962284e+00
  1.502245e+01    2.217961e+00
  1.513358e+01    3.264721e+00
  1.524471e+01    5.992667e+00
  1.535584e+01    4.829621e+00
  1.546697e+01    2.478702e+00
  1.557809e+01    1.960681e+00
  1.568922e+01    1.831273e+00
  1.580035e+01    1.723480e+00
  1.591148e+01    1.654089e+00
  1.602261e+01    1.609578e+00
  1.613374e+01    1.583510e+00
  1.624487e+01    1.567329e+00
  1.635600e+01    1.543988e+00
  1.646713e+01    1.529003e+00
  1.657826e+01    1.533884e+00
  1.668938e+01    1.492146e+00
  1.680051e+01    1.480187e+00
  1.691164e+01    1.478034e+00
  1.702277e+01    1.452734e+00
  1.713390e+01    1.425576e+00
  1.724503e+01    1.452602e+00
  1.735616e+01    1.402572e+00
  1.746729e+01    1.416279e+00
  1.757842e+01    1.369138e+00
  1.768955e+01    1.341320e+00
  1.780067e+01    1.374300e+00
  1.791180e+01    1.339923e+00
  1.802293e+01    1.311572e+00
  1.813406e+01    1.273925e+00
  1.824519e+01    1.283568e+00
  1.835632e+01    1.281884e+00
  1.846745e+01    1.236079e+00
  1.857858e+01    1.249734e+00
  1.868971e+01    1.235695e+00
  1.880084e+01    1.224232e+00
  1.891196e+01    1.240498e+00
  1.902309e+01    1.227670e+00
  1.913422e+01    1.188717e+00
  1.924535e+01    1.196698e+00
  1.935648e+01    1.172379e+00
  1.946761e+01    1.171849e+00
  1.957874e+01    1.161431e+00
  1.968987e+01    1.147305e+00
  1.980100e+01    1.154283e+00
  1.991213e+01    1.151192e+00
  2.002325e+01    1.133109e+00
  2.013438e+01    1.121772e+00
  2.024551e+01    1.113701e+00
  2.035664e+01    1.099946e+00
  2.046777e+01    1.099194e+00
  2.057890e+01    1.116266e+00
  2.069003e+01    1.084846e+00
  2.080116e+01    1.084223e+00
  2.091229e+01    1.084910e+00
  2.102342e+01    1.102964e+00
  2.113455e+01    1.108364e+00
  2.124567e+01    1.126884e+00
  2.135680e+01    1.175011e+00
  2.146793e+01    1.239635e+00
  2.157906e+01    1.456563e+00
  2.169019e+01    2.164926e+00
  2.180132e+01    4.957839e+00
  2.191245e+01    1.050110e+01
  2.202358e+01    5.709392e+00
  2.213471e+01    2.225457e+00
  2.224584e+01    1.452192e+00
  2.235696e+01    1.197760e+00
  2.246809e+01    1.055547e+00
  2.257922e+01    1.018453e+00
  2.269035e+01    9.803964e-01
  2.280148e+01    9.486129e-01
  2.291261e+01    9.292057e-01
  2.302374e+01    8.939818e-01
  2.313487e+01    9.172298e-01
  2.324600e+01    8.906755e-01
  2.335713e+01    8.778779e-01
  2.346825e+01    8.559436e-01
  2.357938e+01    8.564548e-01
  2.369051e+01    8.271168e-01
  2.380164e+01    8.170580e-01
  2.391277e+01    8.125507e-01
  2.402390e+01    8.068925e-01
  2.413503e+01    7.963735e-01
  2.424616e+01    7.907128e-01
  2.435729e+01    8.186758e-01
  2.446842e+01    8.045425e-01
  2.457954e+01    7.883497e-01
  2.469067e+01    7.862886e-01
  2.480180e+01    7.812440e-01
  2.491293e+01    8.143226e-01
  2.502406e+01    8.191695e-01
  2.513519e+01    8.217360e-01
  2.524632e+01    8.682699e-01
  2.535745e+01    8.928276e-01
  2.546858e+01    9.476004e-01
  2.557971e+01    1.031626e+00
  2.569083e+01    1.304948e+00
  2.580196e+01    2.298798e+00
  2.591309e+01    5.673801e+00
  2.602422e+01    8.598515e+00
  2.613535e+01    3.344885e+00
  2.624648e+01    1.617466e+00
  2.635761e+01    1.180712e+00
  2.646874e+01    9.891735e-01
  2.657987e+01    9.614773e-01
  2.669100e+01    9.093910e-01
  2.680212e+01    9.197918e-01
  2.691325e+01    9.289411e-01
  2.702438e+01    1.034002e+00
  2.713551e+01    1.480946e+00
  2.724664e+01    2.538085e+00
  2.735777e+01    1.726926e+00
  2.746890e+01    1.069210e+00
  2.758003e+01    9.219560e-01
  2.769116e+01    8.638048e-01
  2.780229e+01    8.370416e-01
  2.791342e+01    8.202730e-01
  2.802454e+01    8.090907e-01
  2.813567e+01    7.996964e-01
  2.824680e+01    7.973500e-01
  2.835793e+01    8.173088e-01
  2.846906e+01    7.798051e-01
  2.858019e+01    7.648737e-01
  2.869132e+01    7.674015e-01
  2.880245e+01    7.712979e-01
  2.891358e+01    7.566177e-01
  2.902471e+01    7.507020e-01
  2.913583e+01    7.405952e-01
  2.924696e+01    7.386994e-01
  2.935809e+01    7.273523e-01
  2.946922e+01    7.405317e-01
  2.958035e+01    7.438562e-01
  2.969148e+01    7.505355e-01
  2.980261e+01    7.417315e-01
  2.991374e+01    7.359024e-01
  3.002487e+01    7.402318e-01
  3.013600e+01    7.291499e-01
  3.024712e+01    7.263719e-01
  3.035825e+01    7.276248e-01
  3.046938e+01    7.346226e-01
  3.058051e+01    7.045360e-01
  3.069164e+01    7.277995e-01
  3.080277e+01    7.387313e-01
  3.091390e+01    7.305455e-01
  3.102503e+01    7.491573e-01
  3.113616e+01    7.438469e-01
  3.124729e+01    7.244765e-01
  3.135841e+01    7.413738e-01
  3.146954e+01    7.579182e-01
  3.158067e+01    8.182369e-01
  3.169180e+01    8.951014e-01
  3.180293e+01    1.221507e+00
  3.191406e+01    2.259084e+00
  3.202519e+01    2.033507e+00
  3.213632e+01    1.088993e+00
  3.224745e+01    8.645923e-01
  3.235858e+01    7.941413e-01
  3.246970e+01    7.377309e-01
  3.254908e+01    7.361647e-01