File: XRD/2024-07-27_002_Ru-CGO-ex_Activtation_ramp_000002_data_000105.dat
# == pyFAI calibration ==
# Distance Sample to Detector: 0.4 m
# PONI: 9.750e-02, 1.135e-01 m
# Rotations: -0.000175 0.000000 -0.000000 rad
#
# == Fit2d calibration ==
# Distance Sample-beamCenter: 400.000 mm
# Center: x=1514.000, y=1300.000 pix
# Tilt: 0.010 deg  TiltPlanRot: 0.010 deg
#
# Detector Detector	 Spline= None	 PixelSize= 7.500e-05, 7.500e-05 m
#    Detector has a mask: False
#    Detector has a dark current: False
#    detector has a flat field: False
#
# Wavelength: 6.888e-11 m
# Mask applied: user provided
# Dark current applied: False
# Flat field applied: False
# Polarization factor: 0.99
# Normalization factor: 1.0
# --> /home/myspot/data/2024_07_Rosario/Ru-CGO-ex/2024-07-27_002_Ru-CGO-ex_Activtation_ramp_000002_data_000105.dat
#       q_nm^-1             I
  2.003187e-02    0.000000e+00
  1.311609e-01    4.867176e-02
  2.422899e-01    8.033954e-02
  3.534189e-01    3.286087e-02
  4.645479e-01    4.594734e-02
  5.756770e-01    3.787927e-02
  6.868060e-01    1.335574e-02
  7.979350e-01    1.683958e-01
  9.090640e-01    5.879537e-01
  1.020193e+00    1.092533e+00
  1.131322e+00    1.343772e+00
  1.242451e+00    2.204255e+00
  1.353580e+00    2.669930e+00
  1.464709e+00    2.801586e+00
  1.575838e+00    2.962499e+00
  1.686967e+00    2.763069e+00
  1.798096e+00    2.732199e+00
  1.909225e+00    2.745100e+00
  2.020354e+00    2.719647e+00
  2.131483e+00    2.714070e+00
  2.242612e+00    2.735623e+00
  2.353741e+00    2.756687e+00
  2.464870e+00    2.665987e+00
  2.575999e+00    2.804774e+00
  2.687128e+00    2.835565e+00
  2.798257e+00    2.762568e+00
  2.909386e+00    2.885347e+00
  3.020515e+00    2.832973e+00
  3.131644e+00    2.818574e+00
  3.242773e+00    2.827998e+00
  3.353902e+00    2.844951e+00
  3.465031e+00    2.890558e+00
  3.576160e+00    3.002110e+00
  3.687289e+00    2.890498e+00
  3.798418e+00    2.875773e+00
  3.909547e+00    3.023029e+00
  4.020676e+00    2.989906e+00
  4.131806e+00    2.981137e+00
  4.242935e+00    2.980025e+00
  4.354064e+00    3.027426e+00
  4.465193e+00    3.012902e+00
  4.576322e+00    3.058721e+00
  4.687451e+00    2.991299e+00
  4.798580e+00    3.130523e+00
  4.909709e+00    3.116111e+00
  5.020838e+00    3.126352e+00
  5.131967e+00    3.019242e+00
  5.243096e+00    3.026826e+00
  5.354225e+00    3.033197e+00
  5.465354e+00    2.988952e+00
  5.576483e+00    3.027642e+00
  5.687612e+00    3.030737e+00
  5.798741e+00    2.984577e+00
  5.909870e+00    2.964908e+00
  6.020999e+00    2.950774e+00
  6.132128e+00    3.084871e+00
  6.243257e+00    3.056711e+00
  6.354386e+00    3.009353e+00
  6.465515e+00    3.019349e+00
  6.576644e+00    3.000845e+00
  6.687773e+00    2.954859e+00
  6.798902e+00    2.963601e+00
  6.910031e+00    2.920420e+00
  7.021160e+00    2.952899e+00
  7.132289e+00    2.949998e+00
  7.243418e+00    2.942593e+00
  7.354547e+00    2.871136e+00
  7.465676e+00    2.949527e+00
  7.576805e+00    2.907200e+00
  7.687934e+00    2.872827e+00
  7.799063e+00    2.893754e+00
  7.910192e+00    2.844501e+00
  8.021321e+00    2.832836e+00
  8.132450e+00    2.900644e+00
  8.243579e+00    2.957972e+00
  8.354708e+00    2.799672e+00
  8.465837e+00    2.819013e+00
  8.576966e+00    2.842364e+00
  8.688095e+00    2.806724e+00
  8.799224e+00    2.769867e+00
  8.910353e+00    2.770858e+00
  9.021482e+00    2.723706e+00
  9.132611e+00    2.718735e+00
  9.243740e+00    2.727797e+00
  9.354869e+00    2.727214e+00
  9.465998e+00    2.716249e+00
  9.577127e+00    2.745941e+00
  9.688256e+00    2.673832e+00
  9.799385e+00    2.701338e+00
  9.910514e+00    2.677449e+00
  1.002164e+01    2.559125e+00
  1.013277e+01    2.572512e+00
  1.024390e+01    2.559431e+00
  1.035503e+01    2.629602e+00
  1.046616e+01    2.528275e+00
  1.057729e+01    2.567221e+00
  1.068842e+01    2.513329e+00
  1.079955e+01    2.506157e+00
  1.091068e+01    2.482811e+00
  1.102180e+01    2.451209e+00
  1.113293e+01    2.426908e+00
  1.124406e+01    2.398506e+00
  1.135519e+01    2.412867e+00
  1.146632e+01    2.414709e+00
  1.157745e+01    2.364911e+00
  1.168858e+01    2.297458e+00
  1.179971e+01    2.358040e+00
  1.191084e+01    2.323879e+00
  1.202197e+01    2.290957e+00
  1.213309e+01    2.313115e+00
  1.224422e+01    2.262512e+00
  1.235535e+01    2.290491e+00
  1.246648e+01    2.296957e+00
  1.257761e+01    2.356595e+00
  1.268874e+01    2.434687e+00
  1.279987e+01    2.634686e+00
  1.291100e+01    3.298444e+00
  1.302213e+01    6.080485e+00
  1.313326e+01    1.470852e+01
  1.324438e+01    1.269129e+01
  1.335551e+01    4.555418e+00
  1.346664e+01    2.819190e+00
  1.357777e+01    2.417257e+00
  1.368890e+01    2.254002e+00
  1.380003e+01    2.090829e+00
  1.391116e+01    2.084132e+00
  1.402229e+01    2.014655e+00
  1.413342e+01    1.969038e+00
  1.424455e+01    1.977288e+00
  1.435568e+01    1.912329e+00
  1.446680e+01    1.885137e+00
  1.457793e+01    1.876794e+00
  1.468906e+01    1.879045e+00
  1.480019e+01    1.861259e+00
  1.491132e+01    1.979508e+00
  1.502245e+01    2.198907e+00
  1.513358e+01    3.309773e+00
  1.524471e+01    5.740436e+00
  1.535584e+01    4.026034e+00
  1.546697e+01    2.237808e+00
  1.557809e+01    1.859342e+00
  1.568922e+01    1.692993e+00
  1.580035e+01    1.670950e+00
  1.591148e+01    1.607235e+00
  1.602261e+01    1.593382e+00
  1.613374e+01    1.565823e+00
  1.624487e+01    1.573097e+00
  1.635600e+01    1.540146e+00
  1.646713e+01    1.498278e+00
  1.657826e+01    1.481421e+00
  1.668938e+01    1.498992e+00
  1.680051e+01    1.439480e+00
  1.691164e+01    1.447053e+00
  1.702277e+01    1.412858e+00
  1.713390e+01    1.407157e+00
  1.724503e+01    1.379285e+00
  1.735616e+01    1.390075e+00
  1.746729e+01    1.347615e+00
  1.757842e+01    1.329581e+00
  1.768955e+01    1.352729e+00
  1.780067e+01    1.316339e+00
  1.791180e+01    1.288677e+00
  1.802293e+01    1.258175e+00
  1.813406e+01    1.264083e+00
  1.824519e+01    1.287649e+00
  1.835632e+01    1.229074e+00
  1.846745e+01    1.250957e+00
  1.857858e+01    1.247091e+00
  1.868971e+01    1.229810e+00
  1.880084e+01    1.201739e+00
  1.891196e+01    1.199320e+00
  1.902309e+01    1.162483e+00
  1.913422e+01    1.180551e+00
  1.924535e+01    1.173440e+00
  1.935648e+01    1.145573e+00
  1.946761e+01    1.156052e+00
  1.957874e+01    1.113591e+00
  1.968987e+01    1.134287e+00
  1.980100e+01    1.146221e+00
  1.991213e+01    1.127285e+00
  2.002325e+01    1.118809e+00
  2.013438e+01    1.087010e+00
  2.024551e+01    1.095045e+00
  2.035664e+01    1.111987e+00
  2.046777e+01    1.038924e+00
  2.057890e+01    1.075669e+00
  2.069003e+01    1.058980e+00
  2.080116e+01    1.067788e+00
  2.091229e+01    1.086395e+00
  2.102342e+01    1.078624e+00
  2.113455e+01    1.066741e+00
  2.124567e+01    1.113258e+00
  2.135680e+01    1.129955e+00
  2.146793e+01    1.207455e+00
  2.157906e+01    1.443352e+00
  2.169019e+01    2.265656e+00
  2.180132e+01    5.378615e+00
  2.191245e+01    9.774442e+00
  2.202358e+01    4.205008e+00
  2.213471e+01    1.910830e+00
  2.224584e+01    1.339721e+00
  2.235696e+01    1.133664e+00
  2.246809e+01    1.054691e+00
  2.257922e+01    9.730801e-01
  2.269035e+01    9.637939e-01
  2.280148e+01    9.308376e-01
  2.291261e+01    9.031637e-01
  2.302374e+01    8.843629e-01
  2.313487e+01    8.895650e-01
  2.324600e+01    8.686313e-01
  2.335713e+01    8.397210e-01
  2.346825e+01    8.304989e-01
  2.357938e+01    8.290028e-01
  2.369051e+01    8.336811e-01
  2.380164e+01    7.831089e-01
  2.391277e+01    8.126565e-01
  2.402390e+01    7.825465e-01
  2.413503e+01    7.773055e-01
  2.424616e+01    7.641973e-01
  2.435729e+01    7.726770e-01
  2.446842e+01    7.749855e-01
  2.457954e+01    7.890042e-01
  2.469067e+01    7.794142e-01
  2.480180e+01    7.807444e-01
  2.491293e+01    7.918296e-01
  2.502406e+01    7.983138e-01
  2.513519e+01    7.950751e-01
  2.524632e+01    8.433681e-01
  2.535745e+01    8.802898e-01
  2.546858e+01    9.513009e-01
  2.557971e+01    1.054912e+00
  2.569083e+01    1.391603e+00
  2.580196e+01    2.486978e+00
  2.591309e+01    6.109350e+00
  2.602422e+01    6.815433e+00
  2.613535e+01    2.517987e+00
  2.624648e+01    1.375417e+00
  2.635761e+01    1.080366e+00
  2.646874e+01    9.400729e-01
  2.657987e+01    9.036123e-01
  2.669100e+01    8.960111e-01
  2.680212e+01    9.063321e-01
  2.691325e+01    9.222021e-01
  2.702438e+01    1.046888e+00
  2.713551e+01    1.577494e+00
  2.724664e+01    2.288605e+00
  2.735777e+01    1.386189e+00
  2.746890e+01    9.822435e-01
  2.758003e+01    8.455526e-01
  2.769116e+01    8.326919e-01
  2.780229e+01    8.071212e-01
  2.791342e+01    7.916360e-01
  2.802454e+01    7.883180e-01
  2.813567e+01    7.752219e-01
  2.824680e+01    7.607203e-01
  2.835793e+01    7.395259e-01
  2.846906e+01    7.444564e-01
  2.858019e+01    7.545123e-01
  2.869132e+01    7.443922e-01
  2.880245e+01    7.307011e-01
  2.891358e+01    7.212269e-01
  2.902471e+01    7.338669e-01
  2.913583e+01    7.306001e-01
  2.924696e+01    7.216882e-01
  2.935809e+01    7.381349e-01
  2.946922e+01    7.200664e-01
  2.958035e+01    7.202427e-01
  2.969148e+01    6.965861e-01
  2.980261e+01    7.189184e-01
  2.991374e+01    7.103482e-01
  3.002487e+01    7.205772e-01
  3.013600e+01    7.243559e-01
  3.024712e+01    6.920604e-01
  3.035825e+01    7.068754e-01
  3.046938e+01    7.232594e-01
  3.058051e+01    6.959053e-01
  3.069164e+01    6.924067e-01
  3.080277e+01    6.808629e-01
  3.091390e+01    6.896626e-01
  3.102503e+01    7.133535e-01
  3.113616e+01    7.470217e-01
  3.124729e+01    7.440690e-01
  3.135841e+01    7.490289e-01
  3.146954e+01    7.671143e-01
  3.158067e+01    7.853565e-01
  3.169180e+01    9.199855e-01
  3.180293e+01    1.301818e+00
  3.191406e+01    2.287622e+00
  3.202519e+01    1.539447e+00
  3.213632e+01    9.311538e-01
  3.224745e+01    7.964494e-01
  3.235858e+01    7.242231e-01
  3.246970e+01    7.344308e-01
  3.254908e+01    7.278911e-01