File: XRD/2024-07-27_002_Ru-CGO-ex_Activtation_ramp_000002_data_000163.dat
# == pyFAI calibration ==
# Distance Sample to Detector: 0.4 m
# PONI: 9.750e-02, 1.135e-01 m
# Rotations: -0.000175 0.000000 -0.000000 rad
#
# == Fit2d calibration ==
# Distance Sample-beamCenter: 400.000 mm
# Center: x=1514.000, y=1300.000 pix
# Tilt: 0.010 deg  TiltPlanRot: 0.010 deg
#
# Detector Detector	 Spline= None	 PixelSize= 7.500e-05, 7.500e-05 m
#    Detector has a mask: False
#    Detector has a dark current: False
#    detector has a flat field: False
#
# Wavelength: 6.888e-11 m
# Mask applied: user provided
# Dark current applied: False
# Flat field applied: False
# Polarization factor: 0.99
# Normalization factor: 1.0
# --> /home/myspot/data/2024_07_Rosario/Ru-CGO-ex/2024-07-27_002_Ru-CGO-ex_Activtation_ramp_000002_data_000163.dat
#       q_nm^-1             I
  2.003187e-02    0.000000e+00
  1.311609e-01    9.863124e-03
  2.422899e-01    1.171320e-02
  3.534189e-01    6.391484e-02
  4.645479e-01    3.371419e-02
  5.756770e-01    6.100938e-02
  6.868060e-01    3.675336e-02
  7.979350e-01    1.099762e-01
  9.090640e-01    6.503782e-01
  1.020193e+00    1.089602e+00
  1.131322e+00    1.508605e+00
  1.242451e+00    2.106097e+00
  1.353580e+00    2.674911e+00
  1.464709e+00    2.749146e+00
  1.575838e+00    2.882773e+00
  1.686967e+00    2.852148e+00
  1.798096e+00    2.690572e+00
  1.909225e+00    2.836018e+00
  2.020354e+00    2.660836e+00
  2.131483e+00    2.573128e+00
  2.242612e+00    2.676690e+00
  2.353741e+00    2.830447e+00
  2.464870e+00    2.790995e+00
  2.575999e+00    2.758598e+00
  2.687128e+00    2.857868e+00
  2.798257e+00    2.925258e+00
  2.909386e+00    2.917321e+00
  3.020515e+00    2.801617e+00
  3.131644e+00    2.927290e+00
  3.242773e+00    2.959055e+00
  3.353902e+00    2.957473e+00
  3.465031e+00    2.998465e+00
  3.576160e+00    2.915075e+00
  3.687289e+00    2.986593e+00
  3.798418e+00    3.011099e+00
  3.909547e+00    3.022741e+00
  4.020676e+00    3.031494e+00
  4.131806e+00    2.984895e+00
  4.242935e+00    3.047619e+00
  4.354064e+00    3.140555e+00
  4.465193e+00    3.027149e+00
  4.576322e+00    3.133411e+00
  4.687451e+00    3.068604e+00
  4.798580e+00    3.105869e+00
  4.909709e+00    3.110196e+00
  5.020838e+00    3.225152e+00
  5.131967e+00    3.203214e+00
  5.243096e+00    3.129962e+00
  5.354225e+00    3.235283e+00
  5.465354e+00    3.037364e+00
  5.576483e+00    3.159311e+00
  5.687612e+00    3.143322e+00
  5.798741e+00    3.072038e+00
  5.909870e+00    3.151917e+00
  6.020999e+00    3.047768e+00
  6.132128e+00    3.108952e+00
  6.243257e+00    3.085666e+00
  6.354386e+00    3.006876e+00
  6.465515e+00    3.072075e+00
  6.576644e+00    3.053080e+00
  6.687773e+00    3.066928e+00
  6.798902e+00    3.083732e+00
  6.910031e+00    3.098887e+00
  7.021160e+00    2.966570e+00
  7.132289e+00    3.064933e+00
  7.243418e+00    3.008798e+00
  7.354547e+00    3.019872e+00
  7.465676e+00    3.035055e+00
  7.576805e+00    3.019960e+00
  7.687934e+00    3.003926e+00
  7.799063e+00    2.949986e+00
  7.910192e+00    2.869859e+00
  8.021321e+00    2.932063e+00
  8.132450e+00    2.969934e+00
  8.243579e+00    2.953101e+00
  8.354708e+00    2.903614e+00
  8.465837e+00    2.904491e+00
  8.576966e+00    2.872218e+00
  8.688095e+00    2.847478e+00
  8.799224e+00    2.845311e+00
  8.910353e+00    2.823221e+00
  9.021482e+00    2.837578e+00
  9.132611e+00    2.847184e+00
  9.243740e+00    2.782377e+00
  9.354869e+00    2.814323e+00
  9.465998e+00    2.689612e+00
  9.577127e+00    2.810679e+00
  9.688256e+00    2.762194e+00
  9.799385e+00    2.721739e+00
  9.910514e+00    2.682901e+00
  1.002164e+01    2.666258e+00
  1.013277e+01    2.634435e+00
  1.024390e+01    2.628616e+00
  1.035503e+01    2.575182e+00
  1.046616e+01    2.655002e+00
  1.057729e+01    2.597088e+00
  1.068842e+01    2.544563e+00
  1.079955e+01    2.539084e+00
  1.091068e+01    2.557132e+00
  1.102180e+01    2.456709e+00
  1.113293e+01    2.493035e+00
  1.124406e+01    2.509926e+00
  1.135519e+01    2.406268e+00
  1.146632e+01    2.390139e+00
  1.157745e+01    2.391354e+00
  1.168858e+01    2.385107e+00
  1.179971e+01    2.384478e+00
  1.191084e+01    2.359326e+00
  1.202197e+01    2.315179e+00
  1.213309e+01    2.355575e+00
  1.224422e+01    2.301439e+00
  1.235535e+01    2.334436e+00
  1.246648e+01    2.410765e+00
  1.257761e+01    2.386918e+00
  1.268874e+01    2.436452e+00
  1.279987e+01    2.708309e+00
  1.291100e+01    3.318454e+00
  1.302213e+01    6.291352e+00
  1.313326e+01    1.440693e+01
  1.324438e+01    1.075419e+01
  1.335551e+01    4.176580e+00
  1.346664e+01    2.872051e+00
  1.357777e+01    2.423553e+00
  1.368890e+01    2.243070e+00
  1.380003e+01    2.187929e+00
  1.391116e+01    2.094316e+00
  1.402229e+01    2.004739e+00
  1.413342e+01    1.945554e+00
  1.424455e+01    1.945401e+00
  1.435568e+01    1.966824e+00
  1.446680e+01    1.894393e+00
  1.457793e+01    1.918956e+00
  1.468906e+01    1.918678e+00
  1.480019e+01    1.925639e+00
  1.491132e+01    1.960381e+00
  1.502245e+01    2.242883e+00
  1.513358e+01    3.489450e+00
  1.524471e+01    5.531787e+00
  1.535584e+01    3.558962e+00
  1.546697e+01    2.156086e+00
  1.557809e+01    1.864984e+00
  1.568922e+01    1.763296e+00
  1.580035e+01    1.715391e+00
  1.591148e+01    1.663791e+00
  1.602261e+01    1.620267e+00
  1.613374e+01    1.592530e+00
  1.624487e+01    1.542073e+00
  1.635600e+01    1.513364e+00
  1.646713e+01    1.506903e+00
  1.657826e+01    1.538049e+00
  1.668938e+01    1.466257e+00
  1.680051e+01    1.470295e+00
  1.691164e+01    1.480567e+00
  1.702277e+01    1.457242e+00
  1.713390e+01    1.434273e+00
  1.724503e+01    1.404509e+00
  1.735616e+01    1.393090e+00
  1.746729e+01    1.371121e+00
  1.757842e+01    1.362257e+00
  1.768955e+01    1.337479e+00
  1.780067e+01    1.320233e+00
  1.791180e+01    1.329545e+00
  1.802293e+01    1.291463e+00
  1.813406e+01    1.280465e+00
  1.824519e+01    1.280168e+00
  1.835632e+01    1.257340e+00
  1.846745e+01    1.244655e+00
  1.857858e+01    1.249523e+00
  1.868971e+01    1.224803e+00
  1.880084e+01    1.198330e+00
  1.891196e+01    1.174921e+00
  1.902309e+01    1.202106e+00
  1.913422e+01    1.216646e+00
  1.924535e+01    1.156713e+00
  1.935648e+01    1.169921e+00
  1.946761e+01    1.157288e+00
  1.957874e+01    1.148720e+00
  1.968987e+01    1.139115e+00
  1.980100e+01    1.149729e+00
  1.991213e+01    1.140277e+00
  2.002325e+01    1.127935e+00
  2.013438e+01    1.099742e+00
  2.024551e+01    1.110253e+00
  2.035664e+01    1.087965e+00
  2.046777e+01    1.083142e+00
  2.057890e+01    1.071860e+00
  2.069003e+01    1.053325e+00
  2.080116e+01    1.072549e+00
  2.091229e+01    1.096200e+00
  2.102342e+01    1.064973e+00
  2.113455e+01    1.085093e+00
  2.124567e+01    1.085989e+00
  2.135680e+01    1.113023e+00
  2.146793e+01    1.225948e+00
  2.157906e+01    1.481203e+00
  2.169019e+01    2.367560e+00
  2.180132e+01    5.623170e+00
  2.191245e+01    8.805886e+00
  2.202358e+01    3.505833e+00
  2.213471e+01    1.712168e+00
  2.224584e+01    1.290106e+00
  2.235696e+01    1.122167e+00
  2.246809e+01    1.046716e+00
  2.257922e+01    9.740934e-01
  2.269035e+01    9.354132e-01
  2.280148e+01    9.396378e-01
  2.291261e+01    9.077462e-01
  2.302374e+01    9.234886e-01
  2.313487e+01    8.687750e-01
  2.324600e+01    8.646055e-01
  2.335713e+01    8.519949e-01
  2.346825e+01    8.470289e-01
  2.357938e+01    8.512631e-01
  2.369051e+01    8.271905e-01
  2.380164e+01    8.369195e-01
  2.391277e+01    8.278117e-01
  2.402390e+01    7.842516e-01
  2.413503e+01    8.131915e-01
  2.424616e+01    7.991026e-01
  2.435729e+01    7.669091e-01
  2.446842e+01    7.960517e-01
  2.457954e+01    7.719638e-01
  2.469067e+01    8.000832e-01
  2.480180e+01    7.896078e-01
  2.491293e+01    8.014695e-01
  2.502406e+01    8.193905e-01
  2.513519e+01    8.233190e-01
  2.524632e+01    8.313231e-01
  2.535745e+01    8.595403e-01
  2.546858e+01    9.235569e-01
  2.557971e+01    1.069647e+00
  2.569083e+01    1.437371e+00
  2.580196e+01    2.751544e+00
  2.591309e+01    6.295256e+00
  2.602422e+01    5.446350e+00
  2.613535e+01    2.071399e+00
  2.624648e+01    1.243452e+00
  2.635761e+01    1.026928e+00
  2.646874e+01    9.336738e-01
  2.657987e+01    8.968379e-01
  2.669100e+01    8.795168e-01
  2.680212e+01    8.975534e-01
  2.691325e+01    9.171890e-01
  2.702438e+01    1.032917e+00
  2.713551e+01    1.632816e+00
  2.724664e+01    2.084040e+00
  2.735777e+01    1.205587e+00
  2.746890e+01    9.296097e-01
  2.758003e+01    8.465977e-01
  2.769116e+01    8.188360e-01
  2.780229e+01    7.949166e-01
  2.791342e+01    8.004977e-01
  2.802454e+01    7.776242e-01
  2.813567e+01    7.799032e-01
  2.824680e+01    7.684193e-01
  2.835793e+01    7.731177e-01
  2.846906e+01    7.474568e-01
  2.858019e+01    7.503115e-01
  2.869132e+01    7.513983e-01
  2.880245e+01    7.445657e-01
  2.891358e+01    7.392514e-01
  2.902471e+01    7.380379e-01
  2.913583e+01    7.467798e-01
  2.924696e+01    7.381344e-01
  2.935809e+01    7.214336e-01
  2.946922e+01    7.258312e-01
  2.958035e+01    7.110471e-01
  2.969148e+01    7.226088e-01
  2.980261e+01    7.063813e-01
  2.991374e+01    7.191465e-01
  3.002487e+01    7.141075e-01
  3.013600e+01    7.133166e-01
  3.024712e+01    7.284806e-01
  3.035825e+01    7.205529e-01
  3.046938e+01    7.106516e-01
  3.058051e+01    7.028784e-01
  3.069164e+01    6.989023e-01
  3.080277e+01    7.011138e-01
  3.091390e+01    7.331441e-01
  3.102503e+01    7.086958e-01
  3.113616e+01    7.183613e-01
  3.124729e+01    7.138380e-01
  3.135841e+01    7.547362e-01
  3.146954e+01    7.845123e-01
  3.158067e+01    8.210393e-01
  3.169180e+01    9.334210e-01
  3.180293e+01    1.437025e+00
  3.191406e+01    2.145389e+00
  3.202519e+01    1.309026e+00
  3.213632e+01    8.660113e-01
  3.224745e+01    7.626433e-01
  3.235858e+01    7.694613e-01
  3.246970e+01    7.173526e-01
  3.254908e+01    6.901829e-01