File: XRD/2024-07-27_001_Ru-CGO-ex_Pristine_Rt_000057_data_000001.dat
# == pyFAI calibration ==
# Distance Sample to Detector: 0.4 m
# PONI: 9.750e-02, 1.135e-01 m
# Rotations: -0.000175 0.000000 -0.000000 rad
#
# == Fit2d calibration ==
# Distance Sample-beamCenter: 400.000 mm
# Center: x=1514.000, y=1300.000 pix
# Tilt: 0.010 deg  TiltPlanRot: 0.010 deg
#
# Detector Detector	 Spline= None	 PixelSize= 7.500e-05, 7.500e-05 m
#    Detector has a mask: False
#    Detector has a dark current: False
#    detector has a flat field: False
#
# Wavelength: 6.888e-11 m
# Mask applied: user provided
# Dark current applied: False
# Flat field applied: False
# Polarization factor: 0.99
# Normalization factor: 1.0
# --> /home/myspot/data/2024_07_Rosario/2024-07-27_001_Ru-CGO-ex_Pristine_Rt_000057_data_000001.dat
#       q_nm^-1             I
  2.003187e-02    7.711873e-02
  1.311609e-01    1.396692e+00
  2.422899e-01    1.553512e-02
  3.534189e-01    0.000000e+00
  4.645479e-01    2.084605e-02
  5.756770e-01    7.921163e-03
  6.868060e-01    3.793276e-03
  7.979350e-01    4.876135e-03
  9.090640e-01    2.140129e-02
  1.020193e+00    2.044570e-02
  1.131322e+00    3.728853e-02
  1.242451e+00    5.689029e-02
  1.353580e+00    8.829772e-02
  1.464709e+00    1.210816e-01
  1.575838e+00    1.259099e-01
  1.686967e+00    1.254891e-01
  1.798096e+00    9.021073e-02
  1.909225e+00    8.666711e-02
  2.020354e+00    8.541679e-02
  2.131483e+00    8.677915e-02
  2.242612e+00    9.423996e-02
  2.353741e+00    9.951635e-02
  2.464870e+00    7.003488e-02
  2.575999e+00    7.711558e-02
  2.687128e+00    8.726401e-02
  2.798257e+00    7.741150e-02
  2.909386e+00    8.224121e-02
  3.020515e+00    7.572956e-02
  3.131644e+00    9.109222e-02
  3.242773e+00    8.175188e-02
  3.353902e+00    8.672760e-02
  3.465031e+00    9.013233e-02
  3.576160e+00    1.006405e-01
  3.687289e+00    7.309374e-02
  3.798418e+00    7.930386e-02
  3.909547e+00    8.046130e-02
  4.020676e+00    7.723138e-02
  4.131806e+00    8.277025e-02
  4.242935e+00    8.052428e-02
  4.354064e+00    9.908807e-02
  4.465193e+00    9.291974e-02
  4.576322e+00    7.628176e-02
  4.687451e+00    7.887918e-02
  4.798580e+00    8.543332e-02
  4.909709e+00    8.973472e-02
  5.020838e+00    9.415828e-02
  5.131967e+00    8.166663e-02
  5.243096e+00    9.238025e-02
  5.354225e+00    8.214811e-02
  5.465354e+00    9.634545e-02
  5.576483e+00    9.455933e-02
  5.687612e+00    8.901791e-02
  5.798741e+00    8.956880e-02
  5.909870e+00    7.002480e-02
  6.020999e+00    8.575286e-02
  6.132128e+00    8.268341e-02
  6.243257e+00    9.274627e-02
  6.354386e+00    8.796985e-02
  6.465515e+00    8.294819e-02
  6.576644e+00    8.311497e-02
  6.687773e+00    8.313419e-02
  6.798902e+00    9.165726e-02
  6.910031e+00    8.492097e-02
  7.021160e+00    9.148808e-02
  7.132289e+00    9.363753e-02
  7.243418e+00    8.161989e-02
  7.354547e+00    8.284899e-02
  7.465676e+00    9.381729e-02
  7.576805e+00    8.847023e-02
  7.687934e+00    9.746507e-02
  7.799063e+00    8.557817e-02
  7.910192e+00    8.281120e-02
  8.021321e+00    8.843624e-02
  8.132450e+00    9.111855e-02
  8.243579e+00    1.016714e-01
  8.354708e+00    7.718021e-02
  8.465837e+00    8.457821e-02
  8.576966e+00    8.719109e-02
  8.688095e+00    7.904746e-02
  8.799224e+00    8.951806e-02
  8.910353e+00    7.749793e-02
  9.021482e+00    7.631675e-02
  9.132611e+00    7.673663e-02
  9.243740e+00    8.548184e-02
  9.354869e+00    5.988155e-02
  9.465998e+00    8.307081e-02
  9.577127e+00    8.456887e-02
  9.688256e+00    7.829899e-02
  9.799385e+00    7.761119e-02
  9.910514e+00    7.137869e-02
  1.002164e+01    8.334661e-02
  1.013277e+01    8.895537e-02
  1.024390e+01    1.135360e-01
  1.035503e+01    1.324462e-01
  1.046616e+01    2.259816e-01
  1.057729e+01    8.879892e-01
  1.068842e+01    1.545691e+00
  1.079955e+01    5.442478e-01
  1.091068e+01    2.087540e-01
  1.102180e+01    1.308426e-01
  1.113293e+01    1.085173e-01
  1.124406e+01    9.422906e-02
  1.135519e+01    8.333858e-02
  1.146632e+01    8.747398e-02
  1.157745e+01    9.014386e-02
  1.168858e+01    7.977635e-02
  1.179971e+01    7.118104e-02
  1.191084e+01    9.269984e-02
  1.202197e+01    7.643536e-02
  1.213309e+01    1.088080e-01
  1.224422e+01    2.476939e-01
  1.235535e+01    4.843884e-01
  1.246648e+01    2.267274e-01
  1.257761e+01    1.077194e-01
  1.268874e+01    7.394551e-02
  1.279987e+01    7.291345e-02
  1.291100e+01    6.880489e-02
  1.302213e+01    7.340929e-02
  1.313326e+01    7.042881e-02
  1.324438e+01    6.640630e-02
  1.335551e+01    6.787753e-02
  1.346664e+01    6.079184e-02
  1.357777e+01    5.638016e-02
  1.368890e+01    6.329617e-02
  1.380003e+01    6.816228e-02
  1.391116e+01    5.891729e-02
  1.402229e+01    5.273056e-02
  1.413342e+01    6.396282e-02
  1.424455e+01    6.559389e-02
  1.435568e+01    5.541283e-02
  1.446680e+01    4.977741e-02
  1.457793e+01    5.653159e-02
  1.468906e+01    5.492929e-02
  1.480019e+01    6.348907e-02
  1.491132e+01    5.842654e-02
  1.502245e+01    5.503278e-02
  1.513358e+01    5.263093e-02
  1.524471e+01    5.421829e-02
  1.535584e+01    5.573896e-02
  1.546697e+01    5.650280e-02
  1.557809e+01    5.641368e-02
  1.568922e+01    5.468145e-02
  1.580035e+01    5.937846e-02
  1.591148e+01    5.511899e-02
  1.602261e+01    5.226857e-02
  1.613374e+01    5.062693e-02
  1.624487e+01    4.718426e-02
  1.635600e+01    5.639664e-02
  1.646713e+01    5.282381e-02
  1.657826e+01    5.724423e-02
  1.668938e+01    5.315413e-02
  1.680051e+01    5.441691e-02
  1.691164e+01    5.641770e-02
  1.702277e+01    5.717596e-02
  1.713390e+01    6.543583e-02
  1.724503e+01    7.865767e-02
  1.735616e+01    9.963252e-02
  1.746729e+01    1.991029e-01
  1.757842e+01    6.539793e-01
  1.768955e+01    7.544202e-01
  1.780067e+01    2.257030e-01
  1.791180e+01    1.081994e-01
  1.802293e+01    8.403938e-02
  1.813406e+01    7.221109e-02
  1.824519e+01    6.082742e-02
  1.835632e+01    5.438073e-02
  1.846745e+01    5.714116e-02
  1.857858e+01    5.140966e-02
  1.868971e+01    5.551636e-02
  1.880084e+01    4.761159e-02
  1.891196e+01    4.769335e-02
  1.902309e+01    4.924839e-02
  1.913422e+01    4.859050e-02
  1.924535e+01    4.999619e-02
  1.935648e+01    4.598350e-02
  1.946761e+01    5.054921e-02
  1.957874e+01    5.198345e-02
  1.968987e+01    5.067072e-02
  1.980100e+01    5.178726e-02
  1.991213e+01    5.561319e-02
  2.002325e+01    5.003567e-02
  2.013438e+01    5.429960e-02
  2.024551e+01    5.221494e-02
  2.035664e+01    6.286791e-02
  2.046777e+01    8.053395e-02
  2.057890e+01    1.007414e-01
  2.069003e+01    2.552393e-01
  2.080116e+01    6.310261e-01
  2.091229e+01    4.601356e-01
  2.102342e+01    1.774636e-01
  2.113455e+01    1.096946e-01
  2.124567e+01    7.861668e-02
  2.135680e+01    6.283579e-02
  2.146793e+01    6.780396e-02
  2.157906e+01    7.138713e-02
  2.169019e+01    1.122505e-01
  2.180132e+01    1.918630e-01
  2.191245e+01    1.110223e-01
  2.202358e+01    6.701739e-02
  2.213471e+01    5.552083e-02
  2.224584e+01    5.421912e-02
  2.235696e+01    4.958120e-02
  2.246809e+01    4.946295e-02
  2.257922e+01    5.334230e-02
  2.269035e+01    5.016961e-02
  2.280148e+01    5.394794e-02
  2.291261e+01    4.922820e-02
  2.302374e+01    4.806238e-02
  2.313487e+01    3.905844e-02
  2.324600e+01    4.909179e-02
  2.335713e+01    4.283739e-02
  2.346825e+01    4.074382e-02
  2.357938e+01    4.147397e-02
  2.369051e+01    4.521468e-02
  2.380164e+01    4.599639e-02
  2.391277e+01    4.191737e-02
  2.402390e+01    4.030089e-02
  2.413503e+01    4.870142e-02
  2.424616e+01    4.705480e-02
  2.435729e+01    5.114970e-02
  2.446842e+01    4.785144e-02
  2.457954e+01    4.413246e-02
  2.469067e+01    4.446328e-02
  2.480180e+01    4.202915e-02
  2.491293e+01    4.133965e-02
  2.502406e+01    4.719710e-02
  2.513519e+01    5.003283e-02
  2.524632e+01    6.410293e-02
  2.535745e+01    1.260766e-01
  2.546858e+01    1.548434e-01
  2.557971e+01    7.562134e-02
  2.569083e+01    5.618732e-02
  2.580196e+01    4.858560e-02
  2.591309e+01    4.684618e-02
  2.602422e+01    4.440457e-02
  2.613535e+01    4.510698e-02
  2.624648e+01    4.381412e-02
  2.635761e+01    4.564404e-02
  2.646874e+01    3.921746e-02
  2.657987e+01    4.527147e-02
  2.669100e+01    4.585667e-02
  2.680212e+01    4.529175e-02
  2.691325e+01    5.377284e-02
  2.702438e+01    4.680933e-02
  2.713551e+01    4.559898e-02
  2.724664e+01    4.936823e-02
  2.735777e+01    4.692140e-02
  2.746890e+01    5.549365e-02
  2.758003e+01    5.191887e-02
  2.769116e+01    7.217570e-02
  2.780229e+01    1.363582e-01
  2.791342e+01    3.378499e-01
  2.802454e+01    1.919679e-01
  2.813567e+01    1.035789e-01
  2.824680e+01    7.422963e-02
  2.835793e+01    6.384276e-02
  2.846906e+01    7.278336e-02
  2.858019e+01    9.872860e-02
  2.869132e+01    2.263626e-01
  2.880245e+01    1.754792e-01
  2.891358e+01    9.693485e-02
  2.902471e+01    6.395244e-02
  2.913583e+01    5.923443e-02
  2.924696e+01    5.897107e-02
  2.935809e+01    4.879417e-02
  2.946922e+01    4.782657e-02
  2.958035e+01    4.962778e-02
  2.969148e+01    4.992419e-02
  2.980261e+01    4.461653e-02
  2.991374e+01    4.960223e-02
  3.002487e+01    4.667911e-02
  3.013600e+01    4.628945e-02
  3.024712e+01    4.228682e-02
  3.035825e+01    4.563398e-02
  3.046938e+01    4.500330e-02
  3.058051e+01    4.079780e-02
  3.069164e+01    4.992907e-02
  3.080277e+01    5.122414e-02
  3.091390e+01    4.823953e-02
  3.102503e+01    4.834774e-02
  3.113616e+01    4.409536e-02
  3.124729e+01    4.959719e-02
  3.135841e+01    5.086137e-02
  3.146954e+01    5.820594e-02
  3.158067e+01    7.934853e-02
  3.169180e+01    1.834740e-01
  3.180293e+01    2.733032e-01
  3.191406e+01    1.353071e-01
  3.202519e+01    8.506991e-02
  3.213632e+01    6.820018e-02
  3.224745e+01    6.188213e-02
  3.235858e+01    6.030913e-02
  3.246970e+01    5.996512e-02
  3.254908e+01    5.752392e-02