File: XRD/2024-07-27_002_Ru-CGO-ex_Activtation_ramp_000002_data_000043.dat
# == pyFAI calibration ==
# Distance Sample to Detector: 0.4 m
# PONI: 9.750e-02, 1.135e-01 m
# Rotations: -0.000175 0.000000 -0.000000 rad
#
# == Fit2d calibration ==
# Distance Sample-beamCenter: 400.000 mm
# Center: x=1514.000, y=1300.000 pix
# Tilt: 0.010 deg  TiltPlanRot: 0.010 deg
#
# Detector Detector	 Spline= None	 PixelSize= 7.500e-05, 7.500e-05 m
#    Detector has a mask: False
#    Detector has a dark current: False
#    detector has a flat field: False
#
# Wavelength: 6.888e-11 m
# Mask applied: user provided
# Dark current applied: False
# Flat field applied: False
# Polarization factor: 0.99
# Normalization factor: 1.0
# --> /home/myspot/data/2024_07_Rosario/Ru-CGO-ex/2024-07-27_002_Ru-CGO-ex_Activtation_ramp_000002_data_000043.dat
#       q_nm^-1             I
  2.003187e-02    0.000000e+00
  1.311609e-01    6.824727e-02
  2.422899e-01    4.873676e-02
  3.534189e-01    5.285072e-02
  4.645479e-01    2.811612e-02
  5.756770e-01    3.593177e-02
  6.868060e-01    3.700177e-02
  7.979350e-01    1.599753e-01
  9.090640e-01    6.298797e-01
  1.020193e+00    1.034041e+00
  1.131322e+00    1.430566e+00
  1.242451e+00    2.156695e+00
  1.353580e+00    2.510134e+00
  1.464709e+00    2.971159e+00
  1.575838e+00    2.914702e+00
  1.686967e+00    3.034044e+00
  1.798096e+00    2.757108e+00
  1.909225e+00    2.782799e+00
  2.020354e+00    2.824851e+00
  2.131483e+00    2.689545e+00
  2.242612e+00    2.834404e+00
  2.353741e+00    2.776982e+00
  2.464870e+00    2.802454e+00
  2.575999e+00    2.772713e+00
  2.687128e+00    2.812368e+00
  2.798257e+00    2.877528e+00
  2.909386e+00    2.795292e+00
  3.020515e+00    2.848462e+00
  3.131644e+00    2.876628e+00
  3.242773e+00    2.876801e+00
  3.353902e+00    2.955239e+00
  3.465031e+00    2.956094e+00
  3.576160e+00    2.965760e+00
  3.687289e+00    3.023777e+00
  3.798418e+00    2.988323e+00
  3.909547e+00    3.108793e+00
  4.020676e+00    3.045133e+00
  4.131806e+00    2.987990e+00
  4.242935e+00    3.085387e+00
  4.354064e+00    3.057867e+00
  4.465193e+00    3.018603e+00
  4.576322e+00    3.088066e+00
  4.687451e+00    3.024764e+00
  4.798580e+00    3.058305e+00
  4.909709e+00    3.098356e+00
  5.020838e+00    3.192635e+00
  5.131967e+00    3.193119e+00
  5.243096e+00    3.108660e+00
  5.354225e+00    3.092625e+00
  5.465354e+00    3.080502e+00
  5.576483e+00    3.049735e+00
  5.687612e+00    3.027472e+00
  5.798741e+00    2.984744e+00
  5.909870e+00    3.055183e+00
  6.020999e+00    2.992365e+00
  6.132128e+00    3.146516e+00
  6.243257e+00    3.097253e+00
  6.354386e+00    3.069893e+00
  6.465515e+00    2.976589e+00
  6.576644e+00    3.028534e+00
  6.687773e+00    2.977354e+00
  6.798902e+00    2.992514e+00
  6.910031e+00    3.003292e+00
  7.021160e+00    3.044167e+00
  7.132289e+00    2.907837e+00
  7.243418e+00    3.038446e+00
  7.354547e+00    3.035879e+00
  7.465676e+00    3.005735e+00
  7.576805e+00    2.941561e+00
  7.687934e+00    2.967165e+00
  7.799063e+00    3.011534e+00
  7.910192e+00    2.934024e+00
  8.021321e+00    2.899304e+00
  8.132450e+00    2.962865e+00
  8.243579e+00    2.940087e+00
  8.354708e+00    2.850758e+00
  8.465837e+00    2.837717e+00
  8.576966e+00    2.841871e+00
  8.688095e+00    2.875600e+00
  8.799224e+00    2.839451e+00
  8.910353e+00    2.862253e+00
  9.021482e+00    2.880057e+00
  9.132611e+00    2.808161e+00
  9.243740e+00    2.804182e+00
  9.354869e+00    2.755048e+00
  9.465998e+00    2.825547e+00
  9.577127e+00    2.776011e+00
  9.688256e+00    2.740592e+00
  9.799385e+00    2.685715e+00
  9.910514e+00    2.712876e+00
  1.002164e+01    2.700087e+00
  1.013277e+01    2.643574e+00
  1.024390e+01    2.664637e+00
  1.035503e+01    2.657755e+00
  1.046616e+01    2.598124e+00
  1.057729e+01    2.536767e+00
  1.068842e+01    2.530012e+00
  1.079955e+01    2.555101e+00
  1.091068e+01    2.504115e+00
  1.102180e+01    2.491726e+00
  1.113293e+01    2.444384e+00
  1.124406e+01    2.460427e+00
  1.135519e+01    2.453717e+00
  1.146632e+01    2.464572e+00
  1.157745e+01    2.407841e+00
  1.168858e+01    2.385662e+00
  1.179971e+01    2.299239e+00
  1.191084e+01    2.378597e+00
  1.202197e+01    2.328892e+00
  1.213309e+01    2.342487e+00
  1.224422e+01    2.295717e+00
  1.235535e+01    2.318994e+00
  1.246648e+01    2.373017e+00
  1.257761e+01    2.416333e+00
  1.268874e+01    2.460294e+00
  1.279987e+01    2.719970e+00
  1.291100e+01    3.310514e+00
  1.302213e+01    5.880726e+00
  1.313326e+01    1.498908e+01
  1.324438e+01    1.536672e+01
  1.335551e+01    5.177909e+00
  1.346664e+01    3.110533e+00
  1.357777e+01    2.581143e+00
  1.368890e+01    2.358458e+00
  1.380003e+01    2.208981e+00
  1.391116e+01    2.104979e+00
  1.402229e+01    2.045205e+00
  1.413342e+01    2.052700e+00
  1.424455e+01    1.958620e+00
  1.435568e+01    1.930239e+00
  1.446680e+01    1.944109e+00
  1.457793e+01    1.949016e+00
  1.468906e+01    1.914250e+00
  1.480019e+01    1.915203e+00
  1.491132e+01    1.977600e+00
  1.502245e+01    2.206401e+00
  1.513358e+01    3.232997e+00
  1.524471e+01    6.031240e+00
  1.535584e+01    4.781568e+00
  1.546697e+01    2.451081e+00
  1.557809e+01    1.969582e+00
  1.568922e+01    1.803108e+00
  1.580035e+01    1.739838e+00
  1.591148e+01    1.644510e+00
  1.602261e+01    1.609095e+00
  1.613374e+01    1.557884e+00
  1.624487e+01    1.570308e+00
  1.635600e+01    1.542146e+00
  1.646713e+01    1.519819e+00
  1.657826e+01    1.513491e+00
  1.668938e+01    1.467896e+00
  1.680051e+01    1.497856e+00
  1.691164e+01    1.416604e+00
  1.702277e+01    1.441361e+00
  1.713390e+01    1.422076e+00
  1.724503e+01    1.391257e+00
  1.735616e+01    1.404520e+00
  1.746729e+01    1.358913e+00
  1.757842e+01    1.368129e+00
  1.768955e+01    1.368764e+00
  1.780067e+01    1.339433e+00
  1.791180e+01    1.335382e+00
  1.802293e+01    1.324840e+00
  1.813406e+01    1.274154e+00
  1.824519e+01    1.310249e+00
  1.835632e+01    1.242394e+00
  1.846745e+01    1.238505e+00
  1.857858e+01    1.254511e+00
  1.868971e+01    1.254469e+00
  1.880084e+01    1.240863e+00
  1.891196e+01    1.209908e+00
  1.902309e+01    1.211108e+00
  1.913422e+01    1.203087e+00
  1.924535e+01    1.191207e+00
  1.935648e+01    1.194037e+00
  1.946761e+01    1.159425e+00
  1.957874e+01    1.181977e+00
  1.968987e+01    1.172223e+00
  1.980100e+01    1.135859e+00
  1.991213e+01    1.151470e+00
  2.002325e+01    1.112163e+00
  2.013438e+01    1.133055e+00
  2.024551e+01    1.138044e+00
  2.035664e+01    1.102227e+00
  2.046777e+01    1.131458e+00
  2.057890e+01    1.099474e+00
  2.069003e+01    1.094389e+00
  2.080116e+01    1.105322e+00
  2.091229e+01    1.096790e+00
  2.102342e+01    1.085313e+00
  2.113455e+01    1.108493e+00
  2.124567e+01    1.094393e+00
  2.135680e+01    1.134852e+00
  2.146793e+01    1.203565e+00
  2.157906e+01    1.427963e+00
  2.169019e+01    2.153843e+00
  2.180132e+01    4.908137e+00
  2.191245e+01    1.034939e+01
  2.202358e+01    5.647271e+00
  2.213471e+01    2.253794e+00
  2.224584e+01    1.455386e+00
  2.235696e+01    1.191759e+00
  2.246809e+01    1.089413e+00
  2.257922e+01    1.011215e+00
  2.269035e+01    9.819764e-01
  2.280148e+01    9.500881e-01
  2.291261e+01    9.208009e-01
  2.302374e+01    9.275216e-01
  2.313487e+01    9.143800e-01
  2.324600e+01    8.925022e-01
  2.335713e+01    8.828321e-01
  2.346825e+01    8.596550e-01
  2.357938e+01    8.561550e-01
  2.369051e+01    8.531549e-01
  2.380164e+01    8.296224e-01
  2.391277e+01    7.927396e-01
  2.402390e+01    7.852212e-01
  2.413503e+01    7.850755e-01
  2.424616e+01    7.887194e-01
  2.435729e+01    8.034830e-01
  2.446842e+01    7.819418e-01
  2.457954e+01    7.996339e-01
  2.469067e+01    8.088587e-01
  2.480180e+01    8.007692e-01
  2.491293e+01    7.997218e-01
  2.502406e+01    8.088516e-01
  2.513519e+01    8.170237e-01
  2.524632e+01    8.482717e-01
  2.535745e+01    9.095892e-01
  2.546858e+01    9.761235e-01
  2.557971e+01    1.070377e+00
  2.569083e+01    1.323986e+00
  2.580196e+01    2.228074e+00
  2.591309e+01    5.761016e+00
  2.602422e+01    8.582661e+00
  2.613535e+01    3.273656e+00
  2.624648e+01    1.617859e+00
  2.635761e+01    1.170371e+00
  2.646874e+01    1.015832e+00
  2.657987e+01    9.563723e-01
  2.669100e+01    9.395257e-01
  2.680212e+01    9.426740e-01
  2.691325e+01    9.123425e-01
  2.702438e+01    1.031534e+00
  2.713551e+01    1.451444e+00
  2.724664e+01    2.484831e+00
  2.735777e+01    1.714259e+00
  2.746890e+01    1.096875e+00
  2.758003e+01    9.092966e-01
  2.769116e+01    8.655916e-01
  2.780229e+01    8.625421e-01
  2.791342e+01    8.212399e-01
  2.802454e+01    7.947575e-01
  2.813567e+01    7.780183e-01
  2.824680e+01    7.945015e-01
  2.835793e+01    7.819533e-01
  2.846906e+01    7.511370e-01
  2.858019e+01    7.672939e-01
  2.869132e+01    7.525964e-01
  2.880245e+01    7.643034e-01
  2.891358e+01    7.457227e-01
  2.902471e+01    7.575406e-01
  2.913583e+01    7.350051e-01
  2.924696e+01    7.503337e-01
  2.935809e+01    7.402920e-01
  2.946922e+01    7.267921e-01
  2.958035e+01    7.447525e-01
  2.969148e+01    7.455389e-01
  2.980261e+01    7.243411e-01
  2.991374e+01    7.494253e-01
  3.002487e+01    7.301938e-01
  3.013600e+01    7.305828e-01
  3.024712e+01    6.971267e-01
  3.035825e+01    7.269911e-01
  3.046938e+01    7.096781e-01
  3.058051e+01    7.216226e-01
  3.069164e+01    7.377285e-01
  3.080277e+01    7.184563e-01
  3.091390e+01    7.273129e-01
  3.102503e+01    7.315369e-01
  3.113616e+01    7.200042e-01
  3.124729e+01    7.279533e-01
  3.135841e+01    7.424105e-01
  3.146954e+01    7.701362e-01
  3.158067e+01    8.044605e-01
  3.169180e+01    9.100351e-01
  3.180293e+01    1.229391e+00
  3.191406e+01    2.245951e+00
  3.202519e+01    2.026628e+00
  3.213632e+01    1.091987e+00
  3.224745e+01    8.320907e-01
  3.235858e+01    7.893570e-01
  3.246970e+01    7.435609e-01
  3.254908e+01    7.341883e-01