File: XRD/2024-07-27_002_Ru-CGO-ex_Activtation_ramp_000002_data_000086.dat
# == pyFAI calibration ==
# Distance Sample to Detector: 0.4 m
# PONI: 9.750e-02, 1.135e-01 m
# Rotations: -0.000175 0.000000 -0.000000 rad
#
# == Fit2d calibration ==
# Distance Sample-beamCenter: 400.000 mm
# Center: x=1514.000, y=1300.000 pix
# Tilt: 0.010 deg  TiltPlanRot: 0.010 deg
#
# Detector Detector	 Spline= None	 PixelSize= 7.500e-05, 7.500e-05 m
#    Detector has a mask: False
#    Detector has a dark current: False
#    detector has a flat field: False
#
# Wavelength: 6.888e-11 m
# Mask applied: user provided
# Dark current applied: False
# Flat field applied: False
# Polarization factor: 0.99
# Normalization factor: 1.0
# --> /home/myspot/data/2024_07_Rosario/Ru-CGO-ex/2024-07-27_002_Ru-CGO-ex_Activtation_ramp_000002_data_000086.dat
#       q_nm^-1             I
  2.003187e-02    0.000000e+00
  1.311609e-01    4.543610e-02
  2.422899e-01    3.666023e-02
  3.534189e-01    2.097605e-02
  4.645479e-01    3.839411e-02
  5.756770e-01    3.714253e-02
  6.868060e-01    1.730404e-02
  7.979350e-01    1.626282e-01
  9.090640e-01    5.995190e-01
  1.020193e+00    1.058538e+00
  1.131322e+00    1.450719e+00
  1.242451e+00    2.191572e+00
  1.353580e+00    2.692579e+00
  1.464709e+00    2.783454e+00
  1.575838e+00    2.827832e+00
  1.686967e+00    2.879570e+00
  1.798096e+00    2.686754e+00
  1.909225e+00    2.841244e+00
  2.020354e+00    2.707577e+00
  2.131483e+00    2.845480e+00
  2.242612e+00    2.758430e+00
  2.353741e+00    2.709890e+00
  2.464870e+00    2.815653e+00
  2.575999e+00    2.715810e+00
  2.687128e+00    2.951310e+00
  2.798257e+00    2.814631e+00
  2.909386e+00    2.821695e+00
  3.020515e+00    2.873009e+00
  3.131644e+00    2.861798e+00
  3.242773e+00    2.865806e+00
  3.353902e+00    2.963640e+00
  3.465031e+00    2.969859e+00
  3.576160e+00    2.917750e+00
  3.687289e+00    2.986042e+00
  3.798418e+00    3.001770e+00
  3.909547e+00    2.999611e+00
  4.020676e+00    3.020929e+00
  4.131806e+00    2.951994e+00
  4.242935e+00    2.980240e+00
  4.354064e+00    3.056234e+00
  4.465193e+00    3.004969e+00
  4.576322e+00    2.977258e+00
  4.687451e+00    3.096687e+00
  4.798580e+00    3.127354e+00
  4.909709e+00    3.103973e+00
  5.020838e+00    3.049600e+00
  5.131967e+00    3.001778e+00
  5.243096e+00    3.083531e+00
  5.354225e+00    3.085616e+00
  5.465354e+00    2.985593e+00
  5.576483e+00    3.019195e+00
  5.687612e+00    3.036169e+00
  5.798741e+00    2.966487e+00
  5.909870e+00    3.068780e+00
  6.020999e+00    2.931671e+00
  6.132128e+00    3.080279e+00
  6.243257e+00    3.077213e+00
  6.354386e+00    2.928787e+00
  6.465515e+00    3.007191e+00
  6.576644e+00    2.923633e+00
  6.687773e+00    3.007295e+00
  6.798902e+00    3.023607e+00
  6.910031e+00    2.952012e+00
  7.021160e+00    2.926476e+00
  7.132289e+00    2.894827e+00
  7.243418e+00    2.942675e+00
  7.354547e+00    2.997048e+00
  7.465676e+00    2.926996e+00
  7.576805e+00    2.891965e+00
  7.687934e+00    2.901780e+00
  7.799063e+00    2.879360e+00
  7.910192e+00    2.909450e+00
  8.021321e+00    2.883939e+00
  8.132450e+00    2.944901e+00
  8.243579e+00    2.980427e+00
  8.354708e+00    2.882094e+00
  8.465837e+00    2.844611e+00
  8.576966e+00    2.839186e+00
  8.688095e+00    2.823241e+00
  8.799224e+00    2.801458e+00
  8.910353e+00    2.779515e+00
  9.021482e+00    2.758336e+00
  9.132611e+00    2.768172e+00
  9.243740e+00    2.686388e+00
  9.354869e+00    2.737540e+00
  9.465998e+00    2.732563e+00
  9.577127e+00    2.814921e+00
  9.688256e+00    2.743552e+00
  9.799385e+00    2.682554e+00
  9.910514e+00    2.694548e+00
  1.002164e+01    2.671208e+00
  1.013277e+01    2.625168e+00
  1.024390e+01    2.547397e+00
  1.035503e+01    2.592020e+00
  1.046616e+01    2.592287e+00
  1.057729e+01    2.552198e+00
  1.068842e+01    2.511883e+00
  1.079955e+01    2.470693e+00
  1.091068e+01    2.467571e+00
  1.102180e+01    2.518192e+00
  1.113293e+01    2.456342e+00
  1.124406e+01    2.424636e+00
  1.135519e+01    2.408535e+00
  1.146632e+01    2.409498e+00
  1.157745e+01    2.333622e+00
  1.168858e+01    2.356389e+00
  1.179971e+01    2.356926e+00
  1.191084e+01    2.322879e+00
  1.202197e+01    2.317479e+00
  1.213309e+01    2.340454e+00
  1.224422e+01    2.308994e+00
  1.235535e+01    2.291183e+00
  1.246648e+01    2.353588e+00
  1.257761e+01    2.374618e+00
  1.268874e+01    2.448068e+00
  1.279987e+01    2.650630e+00
  1.291100e+01    3.263922e+00
  1.302213e+01    5.912793e+00
  1.313326e+01    1.487116e+01
  1.324438e+01    1.338254e+01
  1.335551e+01    4.708832e+00
  1.346664e+01    2.973724e+00
  1.357777e+01    2.415891e+00
  1.368890e+01    2.195409e+00
  1.380003e+01    2.156103e+00
  1.391116e+01    2.075585e+00
  1.402229e+01    2.015465e+00
  1.413342e+01    1.968051e+00
  1.424455e+01    1.952134e+00
  1.435568e+01    1.916832e+00
  1.446680e+01    1.937396e+00
  1.457793e+01    1.898686e+00
  1.468906e+01    1.912582e+00
  1.480019e+01    1.902668e+00
  1.491132e+01    1.944298e+00
  1.502245e+01    2.179626e+00
  1.513358e+01    3.356182e+00
  1.524471e+01    5.791395e+00
  1.535584e+01    4.269722e+00
  1.546697e+01    2.286604e+00
  1.557809e+01    1.906237e+00
  1.568922e+01    1.732844e+00
  1.580035e+01    1.679404e+00
  1.591148e+01    1.665955e+00
  1.602261e+01    1.596091e+00
  1.613374e+01    1.528684e+00
  1.624487e+01    1.564186e+00
  1.635600e+01    1.522579e+00
  1.646713e+01    1.477007e+00
  1.657826e+01    1.479806e+00
  1.668938e+01    1.493569e+00
  1.680051e+01    1.458373e+00
  1.691164e+01    1.460896e+00
  1.702277e+01    1.399574e+00
  1.713390e+01    1.398356e+00
  1.724503e+01    1.395983e+00
  1.735616e+01    1.393884e+00
  1.746729e+01    1.341433e+00
  1.757842e+01    1.337588e+00
  1.768955e+01    1.369673e+00
  1.780067e+01    1.331737e+00
  1.791180e+01    1.301488e+00
  1.802293e+01    1.275744e+00
  1.813406e+01    1.283869e+00
  1.824519e+01    1.248984e+00
  1.835632e+01    1.233986e+00
  1.846745e+01    1.271485e+00
  1.857858e+01    1.216260e+00
  1.868971e+01    1.221219e+00
  1.880084e+01    1.199888e+00
  1.891196e+01    1.202587e+00
  1.902309e+01    1.185177e+00
  1.913422e+01    1.185746e+00
  1.924535e+01    1.148221e+00
  1.935648e+01    1.200454e+00
  1.946761e+01    1.165280e+00
  1.957874e+01    1.132220e+00
  1.968987e+01    1.142995e+00
  1.980100e+01    1.102861e+00
  1.991213e+01    1.101233e+00
  2.002325e+01    1.101730e+00
  2.013438e+01    1.100763e+00
  2.024551e+01    1.113000e+00
  2.035664e+01    1.096865e+00
  2.046777e+01    1.087122e+00
  2.057890e+01    1.070832e+00
  2.069003e+01    1.048611e+00
  2.080116e+01    1.070566e+00
  2.091229e+01    1.082427e+00
  2.102342e+01    1.082532e+00
  2.113455e+01    1.081733e+00
  2.124567e+01    1.125921e+00
  2.135680e+01    1.119483e+00
  2.146793e+01    1.235546e+00
  2.157906e+01    1.454803e+00
  2.169019e+01    2.220353e+00
  2.180132e+01    5.225352e+00
  2.191245e+01    9.953199e+00
  2.202358e+01    4.586944e+00
  2.213471e+01    1.996181e+00
  2.224584e+01    1.346750e+00
  2.235696e+01    1.159359e+00
  2.246809e+01    1.046297e+00
  2.257922e+01    9.905807e-01
  2.269035e+01    9.507226e-01
  2.280148e+01    9.297054e-01
  2.291261e+01    9.045597e-01
  2.302374e+01    8.835722e-01
  2.313487e+01    8.633045e-01
  2.324600e+01    8.615811e-01
  2.335713e+01    8.691586e-01
  2.346825e+01    8.667200e-01
  2.357938e+01    8.539331e-01
  2.369051e+01    8.185268e-01
  2.380164e+01    8.117419e-01
  2.391277e+01    7.817051e-01
  2.402390e+01    7.711166e-01
  2.413503e+01    7.660341e-01
  2.424616e+01    7.673413e-01
  2.435729e+01    8.139979e-01
  2.446842e+01    7.958619e-01
  2.457954e+01    7.759202e-01
  2.469067e+01    8.164116e-01
  2.480180e+01    7.739669e-01
  2.491293e+01    7.853496e-01
  2.502406e+01    7.934180e-01
  2.513519e+01    8.206521e-01
  2.524632e+01    8.394117e-01
  2.535745e+01    8.744690e-01
  2.546858e+01    9.312834e-01
  2.557971e+01    1.033781e+00
  2.569083e+01    1.361148e+00
  2.580196e+01    2.399364e+00
  2.591309e+01    6.008713e+00
  2.602422e+01    7.350271e+00
  2.613535e+01    2.720675e+00
  2.624648e+01    1.467568e+00
  2.635761e+01    1.118458e+00
  2.646874e+01    9.756355e-01
  2.657987e+01    9.259641e-01
  2.669100e+01    9.054440e-01
  2.680212e+01    8.987396e-01
  2.691325e+01    9.203244e-01
  2.702438e+01    1.029442e+00
  2.713551e+01    1.549591e+00
  2.724664e+01    2.425368e+00
  2.735777e+01    1.475820e+00
  2.746890e+01    9.960555e-01
  2.758003e+01    8.741387e-01
  2.769116e+01    8.451466e-01
  2.780229e+01    7.968046e-01
  2.791342e+01    7.897359e-01
  2.802454e+01    7.873418e-01
  2.813567e+01    7.771527e-01
  2.824680e+01    7.566154e-01
  2.835793e+01    7.661477e-01
  2.846906e+01    7.640340e-01
  2.858019e+01    7.587025e-01
  2.869132e+01    7.616929e-01
  2.880245e+01    7.387844e-01
  2.891358e+01    7.300510e-01
  2.902471e+01    7.252587e-01
  2.913583e+01    7.289720e-01
  2.924696e+01    7.373788e-01
  2.935809e+01    7.390289e-01
  2.946922e+01    7.252707e-01
  2.958035e+01    7.009061e-01
  2.969148e+01    7.279367e-01
  2.980261e+01    7.077306e-01
  2.991374e+01    7.021322e-01
  3.002487e+01    7.180207e-01
  3.013600e+01    7.279077e-01
  3.024712e+01    7.108469e-01
  3.035825e+01    7.170867e-01
  3.046938e+01    7.030269e-01
  3.058051e+01    7.066498e-01
  3.069164e+01    7.114046e-01
  3.080277e+01    7.110434e-01
  3.091390e+01    7.206682e-01
  3.102503e+01    7.212327e-01
  3.113616e+01    6.986768e-01
  3.124729e+01    7.376816e-01
  3.135841e+01    7.100899e-01
  3.146954e+01    7.443759e-01
  3.158067e+01    7.951359e-01
  3.169180e+01    8.774523e-01
  3.180293e+01    1.269897e+00
  3.191406e+01    2.310372e+00
  3.202519e+01    1.682976e+00
  3.213632e+01    9.748890e-01
  3.224745e+01    8.091394e-01
  3.235858e+01    7.563393e-01
  3.246970e+01    7.477467e-01
  3.254908e+01    7.032236e-01