File: XRD/2024-07-27_002_Ru-CGO-ex_Activtation_ramp_000002_data_000084.dat
# == pyFAI calibration ==
# Distance Sample to Detector: 0.4 m
# PONI: 9.750e-02, 1.135e-01 m
# Rotations: -0.000175 0.000000 -0.000000 rad
#
# == Fit2d calibration ==
# Distance Sample-beamCenter: 400.000 mm
# Center: x=1514.000, y=1300.000 pix
# Tilt: 0.010 deg  TiltPlanRot: 0.010 deg
#
# Detector Detector	 Spline= None	 PixelSize= 7.500e-05, 7.500e-05 m
#    Detector has a mask: False
#    Detector has a dark current: False
#    detector has a flat field: False
#
# Wavelength: 6.888e-11 m
# Mask applied: user provided
# Dark current applied: False
# Flat field applied: False
# Polarization factor: 0.99
# Normalization factor: 1.0
# --> /home/myspot/data/2024_07_Rosario/Ru-CGO-ex/2024-07-27_002_Ru-CGO-ex_Activtation_ramp_000002_data_000084.dat
#       q_nm^-1             I
  2.003187e-02    0.000000e+00
  1.311609e-01    2.306544e-03
  2.422899e-01    1.455738e-02
  3.534189e-01    1.093372e-02
  4.645479e-01    5.788149e-02
  5.756770e-01    2.635984e-02
  6.868060e-01    5.178718e-02
  7.979350e-01    1.399184e-01
  9.090640e-01    5.634689e-01
  1.020193e+00    1.157237e+00
  1.131322e+00    1.476649e+00
  1.242451e+00    2.223496e+00
  1.353580e+00    2.474642e+00
  1.464709e+00    2.852317e+00
  1.575838e+00    2.894506e+00
  1.686967e+00    2.904722e+00
  1.798096e+00    2.738488e+00
  1.909225e+00    2.732032e+00
  2.020354e+00    2.716150e+00
  2.131483e+00    2.694230e+00
  2.242612e+00    2.640361e+00
  2.353741e+00    2.703749e+00
  2.464870e+00    2.716572e+00
  2.575999e+00    2.663129e+00
  2.687128e+00    2.782897e+00
  2.798257e+00    2.804178e+00
  2.909386e+00    2.886971e+00
  3.020515e+00    2.876083e+00
  3.131644e+00    2.774402e+00
  3.242773e+00    2.908887e+00
  3.353902e+00    2.887768e+00
  3.465031e+00    2.970583e+00
  3.576160e+00    2.855375e+00
  3.687289e+00    2.866415e+00
  3.798418e+00    2.915691e+00
  3.909547e+00    2.984421e+00
  4.020676e+00    3.011469e+00
  4.131806e+00    3.050583e+00
  4.242935e+00    3.088937e+00
  4.354064e+00    3.053109e+00
  4.465193e+00    3.040272e+00
  4.576322e+00    3.066701e+00
  4.687451e+00    3.138127e+00
  4.798580e+00    3.115758e+00
  4.909709e+00    3.041495e+00
  5.020838e+00    3.135788e+00
  5.131967e+00    3.135494e+00
  5.243096e+00    3.135619e+00
  5.354225e+00    3.061668e+00
  5.465354e+00    3.084431e+00
  5.576483e+00    3.001969e+00
  5.687612e+00    3.066800e+00
  5.798741e+00    3.024015e+00
  5.909870e+00    3.015673e+00
  6.020999e+00    3.012298e+00
  6.132128e+00    3.004920e+00
  6.243257e+00    2.880817e+00
  6.354386e+00    2.993689e+00
  6.465515e+00    2.902830e+00
  6.576644e+00    3.028682e+00
  6.687773e+00    2.990832e+00
  6.798902e+00    2.979247e+00
  6.910031e+00    2.963743e+00
  7.021160e+00    2.920852e+00
  7.132289e+00    2.959878e+00
  7.243418e+00    2.853652e+00
  7.354547e+00    2.929174e+00
  7.465676e+00    2.895530e+00
  7.576805e+00    2.926750e+00
  7.687934e+00    2.933791e+00
  7.799063e+00    2.883010e+00
  7.910192e+00    2.895564e+00
  8.021321e+00    2.913643e+00
  8.132450e+00    2.932914e+00
  8.243579e+00    2.977745e+00
  8.354708e+00    2.888865e+00
  8.465837e+00    2.881303e+00
  8.576966e+00    2.904974e+00
  8.688095e+00    2.818732e+00
  8.799224e+00    2.852178e+00
  8.910353e+00    2.808241e+00
  9.021482e+00    2.726651e+00
  9.132611e+00    2.702816e+00
  9.243740e+00    2.816505e+00
  9.354869e+00    2.755067e+00
  9.465998e+00    2.797866e+00
  9.577127e+00    2.744319e+00
  9.688256e+00    2.737156e+00
  9.799385e+00    2.710967e+00
  9.910514e+00    2.673651e+00
  1.002164e+01    2.621740e+00
  1.013277e+01    2.651309e+00
  1.024390e+01    2.611141e+00
  1.035503e+01    2.615076e+00
  1.046616e+01    2.531495e+00
  1.057729e+01    2.558602e+00
  1.068842e+01    2.519420e+00
  1.079955e+01    2.512698e+00
  1.091068e+01    2.459786e+00
  1.102180e+01    2.430641e+00
  1.113293e+01    2.456689e+00
  1.124406e+01    2.435600e+00
  1.135519e+01    2.382653e+00
  1.146632e+01    2.378483e+00
  1.157745e+01    2.394150e+00
  1.168858e+01    2.332545e+00
  1.179971e+01    2.326581e+00
  1.191084e+01    2.362319e+00
  1.202197e+01    2.299846e+00
  1.213309e+01    2.309993e+00
  1.224422e+01    2.261505e+00
  1.235535e+01    2.314686e+00
  1.246648e+01    2.313715e+00
  1.257761e+01    2.358591e+00
  1.268874e+01    2.437714e+00
  1.279987e+01    2.614772e+00
  1.291100e+01    3.266999e+00
  1.302213e+01    5.970323e+00
  1.313326e+01    1.481944e+01
  1.324438e+01    1.374261e+01
  1.335551e+01    4.732479e+00
  1.346664e+01    2.966403e+00
  1.357777e+01    2.487981e+00
  1.368890e+01    2.283990e+00
  1.380003e+01    2.161858e+00
  1.391116e+01    2.078009e+00
  1.402229e+01    1.998829e+00
  1.413342e+01    1.974798e+00
  1.424455e+01    1.962635e+00
  1.435568e+01    1.943886e+00
  1.446680e+01    1.942203e+00
  1.457793e+01    1.923495e+00
  1.468906e+01    1.903400e+00
  1.480019e+01    1.892472e+00
  1.491132e+01    1.932319e+00
  1.502245e+01    2.203750e+00
  1.513358e+01    3.289823e+00
  1.524471e+01    5.799263e+00
  1.535584e+01    4.231354e+00
  1.546697e+01    2.336910e+00
  1.557809e+01    1.881239e+00
  1.568922e+01    1.751614e+00
  1.580035e+01    1.654891e+00
  1.591148e+01    1.599481e+00
  1.602261e+01    1.585913e+00
  1.613374e+01    1.567931e+00
  1.624487e+01    1.534688e+00
  1.635600e+01    1.519831e+00
  1.646713e+01    1.492709e+00
  1.657826e+01    1.485093e+00
  1.668938e+01    1.444271e+00
  1.680051e+01    1.460686e+00
  1.691164e+01    1.463876e+00
  1.702277e+01    1.392536e+00
  1.713390e+01    1.392436e+00
  1.724503e+01    1.382966e+00
  1.735616e+01    1.354749e+00
  1.746729e+01    1.367248e+00
  1.757842e+01    1.339788e+00
  1.768955e+01    1.335707e+00
  1.780067e+01    1.325654e+00
  1.791180e+01    1.313314e+00
  1.802293e+01    1.284213e+00
  1.813406e+01    1.265215e+00
  1.824519e+01    1.254640e+00
  1.835632e+01    1.267752e+00
  1.846745e+01    1.268900e+00
  1.857858e+01    1.227705e+00
  1.868971e+01    1.202939e+00
  1.880084e+01    1.230473e+00
  1.891196e+01    1.206643e+00
  1.902309e+01    1.194584e+00
  1.913422e+01    1.175468e+00
  1.924535e+01    1.170113e+00
  1.935648e+01    1.184523e+00
  1.946761e+01    1.171123e+00
  1.957874e+01    1.139045e+00
  1.968987e+01    1.147857e+00
  1.980100e+01    1.126922e+00
  1.991213e+01    1.099895e+00
  2.002325e+01    1.113962e+00
  2.013438e+01    1.092083e+00
  2.024551e+01    1.096119e+00
  2.035664e+01    1.095049e+00
  2.046777e+01    1.095454e+00
  2.057890e+01    1.055507e+00
  2.069003e+01    1.095083e+00
  2.080116e+01    1.063532e+00
  2.091229e+01    1.074125e+00
  2.102342e+01    1.075662e+00
  2.113455e+01    1.088687e+00
  2.124567e+01    1.093083e+00
  2.135680e+01    1.140672e+00
  2.146793e+01    1.209271e+00
  2.157906e+01    1.436154e+00
  2.169019e+01    2.228065e+00
  2.180132e+01    5.170168e+00
  2.191245e+01    1.003356e+01
  2.202358e+01    4.626019e+00
  2.213471e+01    2.008946e+00
  2.224584e+01    1.351377e+00
  2.235696e+01    1.152594e+00
  2.246809e+01    1.085319e+00
  2.257922e+01    9.747103e-01
  2.269035e+01    9.608668e-01
  2.280148e+01    9.261690e-01
  2.291261e+01    8.973448e-01
  2.302374e+01    8.953849e-01
  2.313487e+01    8.982879e-01
  2.324600e+01    8.585684e-01
  2.335713e+01    8.640367e-01
  2.346825e+01    8.546055e-01
  2.357938e+01    8.374467e-01
  2.369051e+01    8.379866e-01
  2.380164e+01    8.147038e-01
  2.391277e+01    7.810310e-01
  2.402390e+01    7.712271e-01
  2.413503e+01    7.612523e-01
  2.424616e+01    7.733978e-01
  2.435729e+01    7.868931e-01
  2.446842e+01    7.882606e-01
  2.457954e+01    7.856146e-01
  2.469067e+01    7.752135e-01
  2.480180e+01    7.893330e-01
  2.491293e+01    7.736752e-01
  2.502406e+01    8.159848e-01
  2.513519e+01    8.199013e-01
  2.524632e+01    8.447310e-01
  2.535745e+01    8.803447e-01
  2.546858e+01    9.567046e-01
  2.557971e+01    1.047775e+00
  2.569083e+01    1.350441e+00
  2.580196e+01    2.386689e+00
  2.591309e+01    6.026660e+00
  2.602422e+01    7.493601e+00
  2.613535e+01    2.753181e+00
  2.624648e+01    1.419887e+00
  2.635761e+01    1.093284e+00
  2.646874e+01    9.804360e-01
  2.657987e+01    9.370478e-01
  2.669100e+01    9.072275e-01
  2.680212e+01    8.818305e-01
  2.691325e+01    9.323671e-01
  2.702438e+01    1.035323e+00
  2.713551e+01    1.511332e+00
  2.724664e+01    2.376142e+00
  2.735777e+01    1.477675e+00
  2.746890e+01    1.029068e+00
  2.758003e+01    9.088477e-01
  2.769116e+01    8.186501e-01
  2.780229e+01    7.980107e-01
  2.791342e+01    7.830462e-01
  2.802454e+01    8.010300e-01
  2.813567e+01    7.649827e-01
  2.824680e+01    7.808458e-01
  2.835793e+01    7.712300e-01
  2.846906e+01    7.777122e-01
  2.858019e+01    7.503931e-01
  2.869132e+01    7.456440e-01
  2.880245e+01    7.236711e-01
  2.891358e+01    7.297692e-01
  2.902471e+01    7.150781e-01
  2.913583e+01    7.227414e-01
  2.924696e+01    7.262999e-01
  2.935809e+01    7.330053e-01
  2.946922e+01    7.049300e-01
  2.958035e+01    7.366203e-01
  2.969148e+01    7.196419e-01
  2.980261e+01    7.304012e-01
  2.991374e+01    7.357643e-01
  3.002487e+01    7.427468e-01
  3.013600e+01    7.117935e-01
  3.024712e+01    7.090982e-01
  3.035825e+01    7.206841e-01
  3.046938e+01    7.063209e-01
  3.058051e+01    7.222561e-01
  3.069164e+01    7.151148e-01
  3.080277e+01    7.136053e-01
  3.091390e+01    7.285687e-01
  3.102503e+01    6.984388e-01
  3.113616e+01    7.025207e-01
  3.124729e+01    7.248370e-01
  3.135841e+01    7.305373e-01
  3.146954e+01    7.569891e-01
  3.158067e+01    7.977670e-01
  3.169180e+01    8.952367e-01
  3.180293e+01    1.286627e+00
  3.191406e+01    2.275286e+00
  3.202519e+01    1.696660e+00
  3.213632e+01    1.011683e+00
  3.224745e+01    8.410214e-01
  3.235858e+01    7.446666e-01
  3.246970e+01    7.517931e-01
  3.254908e+01    7.261608e-01