File: XRD/2024-07-27_002_Ru-CGO-ex_Activtation_ramp_000002_data_000177.dat
# == pyFAI calibration ==
# Distance Sample to Detector: 0.4 m
# PONI: 9.750e-02, 1.135e-01 m
# Rotations: -0.000175 0.000000 -0.000000 rad
#
# == Fit2d calibration ==
# Distance Sample-beamCenter: 400.000 mm
# Center: x=1514.000, y=1300.000 pix
# Tilt: 0.010 deg  TiltPlanRot: 0.010 deg
#
# Detector Detector	 Spline= None	 PixelSize= 7.500e-05, 7.500e-05 m
#    Detector has a mask: False
#    Detector has a dark current: False
#    detector has a flat field: False
#
# Wavelength: 6.888e-11 m
# Mask applied: user provided
# Dark current applied: False
# Flat field applied: False
# Polarization factor: 0.99
# Normalization factor: 1.0
# --> /home/myspot/data/2024_07_Rosario/Ru-CGO-ex/2024-07-27_002_Ru-CGO-ex_Activtation_ramp_000002_data_000177.dat
#       q_nm^-1             I
  2.003187e-02    2.227120e-02
  1.311609e-01    6.770309e-02
  2.422899e-01    2.442939e-02
  3.534189e-01    3.834445e-02
  4.645479e-01    4.927416e-02
  5.756770e-01    4.828316e-02
  6.868060e-01    4.140076e-02
  7.979350e-01    1.487354e-01
  9.090640e-01    6.271814e-01
  1.020193e+00    1.065337e+00
  1.131322e+00    1.406898e+00
  1.242451e+00    2.040408e+00
  1.353580e+00    2.543028e+00
  1.464709e+00    2.624380e+00
  1.575838e+00    2.804594e+00
  1.686967e+00    2.753942e+00
  1.798096e+00    2.730915e+00
  1.909225e+00    2.615813e+00
  2.020354e+00    2.709173e+00
  2.131483e+00    2.872749e+00
  2.242612e+00    2.766021e+00
  2.353741e+00    2.689563e+00
  2.464870e+00    2.719935e+00
  2.575999e+00    2.759793e+00
  2.687128e+00    2.783242e+00
  2.798257e+00    2.780412e+00
  2.909386e+00    2.910923e+00
  3.020515e+00    2.909867e+00
  3.131644e+00    2.848856e+00
  3.242773e+00    3.019703e+00
  3.353902e+00    2.957436e+00
  3.465031e+00    2.992198e+00
  3.576160e+00    2.993080e+00
  3.687289e+00    2.947210e+00
  3.798418e+00    3.086370e+00
  3.909547e+00    2.989954e+00
  4.020676e+00    3.028701e+00
  4.131806e+00    2.975889e+00
  4.242935e+00    3.037966e+00
  4.354064e+00    3.013802e+00
  4.465193e+00    3.017689e+00
  4.576322e+00    3.053046e+00
  4.687451e+00    3.101448e+00
  4.798580e+00    3.096040e+00
  4.909709e+00    3.158362e+00
  5.020838e+00    3.198502e+00
  5.131967e+00    3.126222e+00
  5.243096e+00    3.103275e+00
  5.354225e+00    3.196119e+00
  5.465354e+00    3.098143e+00
  5.576483e+00    3.051716e+00
  5.687612e+00    3.045795e+00
  5.798741e+00    3.001778e+00
  5.909870e+00    3.105635e+00
  6.020999e+00    3.025876e+00
  6.132128e+00    3.070952e+00
  6.243257e+00    3.035786e+00
  6.354386e+00    2.984243e+00
  6.465515e+00    3.059490e+00
  6.576644e+00    3.056958e+00
  6.687773e+00    3.058484e+00
  6.798902e+00    3.087310e+00
  6.910031e+00    3.028448e+00
  7.021160e+00    3.026258e+00
  7.132289e+00    3.033780e+00
  7.243418e+00    2.930189e+00
  7.354547e+00    2.906350e+00
  7.465676e+00    3.000359e+00
  7.576805e+00    2.971788e+00
  7.687934e+00    2.963295e+00
  7.799063e+00    2.968509e+00
  7.910192e+00    2.936674e+00
  8.021321e+00    2.939115e+00
  8.132450e+00    2.954934e+00
  8.243579e+00    2.939080e+00
  8.354708e+00    2.932041e+00
  8.465837e+00    2.881767e+00
  8.576966e+00    2.918940e+00
  8.688095e+00    2.896934e+00
  8.799224e+00    2.846461e+00
  8.910353e+00    2.797914e+00
  9.021482e+00    2.885816e+00
  9.132611e+00    2.821350e+00
  9.243740e+00    2.756824e+00
  9.354869e+00    2.704137e+00
  9.465998e+00    2.772135e+00
  9.577127e+00    2.785767e+00
  9.688256e+00    2.741346e+00
  9.799385e+00    2.689029e+00
  9.910514e+00    2.698209e+00
  1.002164e+01    2.771280e+00
  1.013277e+01    2.634934e+00
  1.024390e+01    2.608208e+00
  1.035503e+01    2.719980e+00
  1.046616e+01    2.575586e+00
  1.057729e+01    2.653215e+00
  1.068842e+01    2.617778e+00
  1.079955e+01    2.540790e+00
  1.091068e+01    2.516924e+00
  1.102180e+01    2.446480e+00
  1.113293e+01    2.468990e+00
  1.124406e+01    2.420244e+00
  1.135519e+01    2.448371e+00
  1.146632e+01    2.389122e+00
  1.157745e+01    2.431365e+00
  1.168858e+01    2.365734e+00
  1.179971e+01    2.374136e+00
  1.191084e+01    2.370577e+00
  1.202197e+01    2.320345e+00
  1.213309e+01    2.323744e+00
  1.224422e+01    2.362346e+00
  1.235535e+01    2.326176e+00
  1.246648e+01    2.358595e+00
  1.257761e+01    2.419261e+00
  1.268874e+01    2.427002e+00
  1.279987e+01    2.675388e+00
  1.291100e+01    3.279773e+00
  1.302213e+01    6.213853e+00
  1.313326e+01    1.415985e+01
  1.324438e+01    1.067221e+01
  1.335551e+01    4.150142e+00
  1.346664e+01    2.804017e+00
  1.357777e+01    2.401489e+00
  1.368890e+01    2.222556e+00
  1.380003e+01    2.174945e+00
  1.391116e+01    2.081619e+00
  1.402229e+01    2.066573e+00
  1.413342e+01    2.028401e+00
  1.424455e+01    2.003288e+00
  1.435568e+01    1.929599e+00
  1.446680e+01    1.918969e+00
  1.457793e+01    1.908483e+00
  1.468906e+01    1.895512e+00
  1.480019e+01    1.916251e+00
  1.491132e+01    1.945085e+00
  1.502245e+01    2.189851e+00
  1.513358e+01    3.441352e+00
  1.524471e+01    5.483470e+00
  1.535584e+01    3.600751e+00
  1.546697e+01    2.127259e+00
  1.557809e+01    1.855547e+00
  1.568922e+01    1.683682e+00
  1.580035e+01    1.671040e+00
  1.591148e+01    1.641238e+00
  1.602261e+01    1.588363e+00
  1.613374e+01    1.621544e+00
  1.624487e+01    1.576111e+00
  1.635600e+01    1.519291e+00
  1.646713e+01    1.550611e+00
  1.657826e+01    1.505730e+00
  1.668938e+01    1.470094e+00
  1.680051e+01    1.439119e+00
  1.691164e+01    1.464359e+00
  1.702277e+01    1.473755e+00
  1.713390e+01    1.430662e+00
  1.724503e+01    1.440554e+00
  1.735616e+01    1.378198e+00
  1.746729e+01    1.368769e+00
  1.757842e+01    1.371232e+00
  1.768955e+01    1.345732e+00
  1.780067e+01    1.342728e+00
  1.791180e+01    1.362449e+00
  1.802293e+01    1.298485e+00
  1.813406e+01    1.300190e+00
  1.824519e+01    1.297873e+00
  1.835632e+01    1.258376e+00
  1.846745e+01    1.270495e+00
  1.857858e+01    1.247212e+00
  1.868971e+01    1.229414e+00
  1.880084e+01    1.233221e+00
  1.891196e+01    1.197389e+00
  1.902309e+01    1.184856e+00
  1.913422e+01    1.190333e+00
  1.924535e+01    1.191649e+00
  1.935648e+01    1.176121e+00
  1.946761e+01    1.167391e+00
  1.957874e+01    1.139804e+00
  1.968987e+01    1.130910e+00
  1.980100e+01    1.139478e+00
  1.991213e+01    1.104310e+00
  2.002325e+01    1.117213e+00
  2.013438e+01    1.090566e+00
  2.024551e+01    1.131611e+00
  2.035664e+01    1.098569e+00
  2.046777e+01    1.096787e+00
  2.057890e+01    1.069996e+00
  2.069003e+01    1.115883e+00
  2.080116e+01    1.081655e+00
  2.091229e+01    1.083465e+00
  2.102342e+01    1.084464e+00
  2.113455e+01    1.087495e+00
  2.124567e+01    1.106230e+00
  2.135680e+01    1.142897e+00
  2.146793e+01    1.216715e+00
  2.157906e+01    1.481386e+00
  2.169019e+01    2.317383e+00
  2.180132e+01    5.521684e+00
  2.191245e+01    8.708698e+00
  2.202358e+01    3.470409e+00
  2.213471e+01    1.700481e+00
  2.224584e+01    1.276270e+00
  2.235696e+01    1.093521e+00
  2.246809e+01    1.024897e+00
  2.257922e+01    9.776765e-01
  2.269035e+01    9.593660e-01
  2.280148e+01    9.577210e-01
  2.291261e+01    9.065658e-01
  2.302374e+01    9.095668e-01
  2.313487e+01    8.819245e-01
  2.324600e+01    8.723844e-01
  2.335713e+01    8.511141e-01
  2.346825e+01    8.442861e-01
  2.357938e+01    8.417884e-01
  2.369051e+01    8.262650e-01
  2.380164e+01    8.062652e-01
  2.391277e+01    7.834454e-01
  2.402390e+01    8.016703e-01
  2.413503e+01    7.847958e-01
  2.424616e+01    7.719563e-01
  2.435729e+01    7.879168e-01
  2.446842e+01    7.819214e-01
  2.457954e+01    8.003861e-01
  2.469067e+01    8.056307e-01
  2.480180e+01    7.902920e-01
  2.491293e+01    7.891288e-01
  2.502406e+01    8.036955e-01
  2.513519e+01    8.180302e-01
  2.524632e+01    8.281335e-01
  2.535745e+01    8.872121e-01
  2.546858e+01    9.156093e-01
  2.557971e+01    1.069656e+00
  2.569083e+01    1.399742e+00
  2.580196e+01    2.652430e+00
  2.591309e+01    6.212684e+00
  2.602422e+01    5.300494e+00
  2.613535e+01    2.047679e+00
  2.624648e+01    1.269742e+00
  2.635761e+01    1.032131e+00
  2.646874e+01    9.584849e-01
  2.657987e+01    9.102286e-01
  2.669100e+01    8.852921e-01
  2.680212e+01    8.799592e-01
  2.691325e+01    9.091626e-01
  2.702438e+01    1.060854e+00
  2.713551e+01    1.642509e+00
  2.724664e+01    2.091138e+00
  2.735777e+01    1.208289e+00
  2.746890e+01    9.283932e-01
  2.758003e+01    8.312069e-01
  2.769116e+01    8.367605e-01
  2.780229e+01    8.085440e-01
  2.791342e+01    7.861360e-01
  2.802454e+01    7.810411e-01
  2.813567e+01    7.772773e-01
  2.824680e+01    7.695165e-01
  2.835793e+01    7.653352e-01
  2.846906e+01    7.690167e-01
  2.858019e+01    7.417729e-01
  2.869132e+01    7.281029e-01
  2.880245e+01    7.528265e-01
  2.891358e+01    7.187819e-01
  2.902471e+01    7.453735e-01
  2.913583e+01    7.057013e-01
  2.924696e+01    7.145220e-01
  2.935809e+01    7.073570e-01
  2.946922e+01    7.157464e-01
  2.958035e+01    7.391258e-01
  2.969148e+01    7.212471e-01
  2.980261e+01    7.151048e-01
  2.991374e+01    7.192875e-01
  3.002487e+01    7.346555e-01
  3.013600e+01    6.989387e-01
  3.024712e+01    6.959632e-01
  3.035825e+01    7.009320e-01
  3.046938e+01    6.912367e-01
  3.058051e+01    6.971712e-01
  3.069164e+01    7.070559e-01
  3.080277e+01    7.250808e-01
  3.091390e+01    7.133432e-01
  3.102503e+01    7.163010e-01
  3.113616e+01    7.029873e-01
  3.124729e+01    7.147913e-01
  3.135841e+01    7.276173e-01
  3.146954e+01    7.613969e-01
  3.158067e+01    7.838548e-01
  3.169180e+01    9.180681e-01
  3.180293e+01    1.395352e+00
  3.191406e+01    2.159505e+00
  3.202519e+01    1.306248e+00
  3.213632e+01    8.612319e-01
  3.224745e+01    7.929195e-01
  3.235858e+01    7.753347e-01
  3.246970e+01    7.304068e-01
  3.254908e+01    7.210714e-01