File: XRD/2024-07-27_002_Ru-CGO-ex_Activtation_ramp_000002_data_000022.dat
# == pyFAI calibration ==
# Distance Sample to Detector: 0.4 m
# PONI: 9.750e-02, 1.135e-01 m
# Rotations: -0.000175 0.000000 -0.000000 rad
#
# == Fit2d calibration ==
# Distance Sample-beamCenter: 400.000 mm
# Center: x=1514.000, y=1300.000 pix
# Tilt: 0.010 deg  TiltPlanRot: 0.010 deg
#
# Detector Detector	 Spline= None	 PixelSize= 7.500e-05, 7.500e-05 m
#    Detector has a mask: False
#    Detector has a dark current: False
#    detector has a flat field: False
#
# Wavelength: 6.888e-11 m
# Mask applied: user provided
# Dark current applied: False
# Flat field applied: False
# Polarization factor: 0.99
# Normalization factor: 1.0
# --> /home/myspot/data/2024_07_Rosario/Ru-CGO-ex/2024-07-27_002_Ru-CGO-ex_Activtation_ramp_000002_data_000022.dat
#       q_nm^-1             I
  2.003187e-02    0.000000e+00
  1.311609e-01    5.304856e-02
  2.422899e-01    4.015121e-02
  3.534189e-01    4.824753e-02
  4.645479e-01    4.794788e-02
  5.756770e-01    2.477553e-02
  6.868060e-01    1.890171e-02
  7.979350e-01    1.274091e-01
  9.090640e-01    6.377197e-01
  1.020193e+00    1.042618e+00
  1.131322e+00    1.518199e+00
  1.242451e+00    2.359432e+00
  1.353580e+00    2.640409e+00
  1.464709e+00    2.928665e+00
  1.575838e+00    2.910780e+00
  1.686967e+00    2.856893e+00
  1.798096e+00    2.755152e+00
  1.909225e+00    2.657811e+00
  2.020354e+00    2.785714e+00
  2.131483e+00    2.716542e+00
  2.242612e+00    2.770001e+00
  2.353741e+00    2.849465e+00
  2.464870e+00    2.715390e+00
  2.575999e+00    2.877321e+00
  2.687128e+00    2.854587e+00
  2.798257e+00    2.971088e+00
  2.909386e+00    2.813609e+00
  3.020515e+00    2.928247e+00
  3.131644e+00    2.893661e+00
  3.242773e+00    2.983794e+00
  3.353902e+00    2.846802e+00
  3.465031e+00    2.872011e+00
  3.576160e+00    3.029793e+00
  3.687289e+00    2.975147e+00
  3.798418e+00    2.990958e+00
  3.909547e+00    3.006624e+00
  4.020676e+00    3.010727e+00
  4.131806e+00    3.054667e+00
  4.242935e+00    3.032395e+00
  4.354064e+00    3.063070e+00
  4.465193e+00    3.156628e+00
  4.576322e+00    3.110279e+00
  4.687451e+00    3.187740e+00
  4.798580e+00    3.128744e+00
  4.909709e+00    3.070638e+00
  5.020838e+00    3.115736e+00
  5.131967e+00    3.135613e+00
  5.243096e+00    3.074397e+00
  5.354225e+00    3.140539e+00
  5.465354e+00    3.119071e+00
  5.576483e+00    3.177758e+00
  5.687612e+00    3.059083e+00
  5.798741e+00    3.134842e+00
  5.909870e+00    3.091449e+00
  6.020999e+00    3.047265e+00
  6.132128e+00    3.090658e+00
  6.243257e+00    3.037536e+00
  6.354386e+00    3.110596e+00
  6.465515e+00    3.005003e+00
  6.576644e+00    3.024247e+00
  6.687773e+00    3.113343e+00
  6.798902e+00    3.014456e+00
  6.910031e+00    3.047742e+00
  7.021160e+00    3.066724e+00
  7.132289e+00    2.987668e+00
  7.243418e+00    2.992907e+00
  7.354547e+00    2.996186e+00
  7.465676e+00    3.059181e+00
  7.576805e+00    3.021096e+00
  7.687934e+00    2.946409e+00
  7.799063e+00    2.901284e+00
  7.910192e+00    2.943617e+00
  8.021321e+00    2.992942e+00
  8.132450e+00    2.987035e+00
  8.243579e+00    2.927786e+00
  8.354708e+00    2.959925e+00
  8.465837e+00    2.889851e+00
  8.576966e+00    2.944841e+00
  8.688095e+00    2.847080e+00
  8.799224e+00    2.853149e+00
  8.910353e+00    2.871825e+00
  9.021482e+00    2.836030e+00
  9.132611e+00    2.831610e+00
  9.243740e+00    2.865656e+00
  9.354869e+00    2.735302e+00
  9.465998e+00    2.756725e+00
  9.577127e+00    2.795645e+00
  9.688256e+00    2.748215e+00
  9.799385e+00    2.765514e+00
  9.910514e+00    2.789086e+00
  1.002164e+01    2.640468e+00
  1.013277e+01    2.621882e+00
  1.024390e+01    2.711984e+00
  1.035503e+01    2.612140e+00
  1.046616e+01    2.594521e+00
  1.057729e+01    2.629093e+00
  1.068842e+01    2.540913e+00
  1.079955e+01    2.554362e+00
  1.091068e+01    2.564068e+00
  1.102180e+01    2.538538e+00
  1.113293e+01    2.504994e+00
  1.124406e+01    2.450956e+00
  1.135519e+01    2.405493e+00
  1.146632e+01    2.386441e+00
  1.157745e+01    2.414716e+00
  1.168858e+01    2.369712e+00
  1.179971e+01    2.399220e+00
  1.191084e+01    2.319810e+00
  1.202197e+01    2.330942e+00
  1.213309e+01    2.341029e+00
  1.224422e+01    2.356960e+00
  1.235535e+01    2.345396e+00
  1.246648e+01    2.347208e+00
  1.257761e+01    2.370173e+00
  1.268874e+01    2.514246e+00
  1.279987e+01    2.661123e+00
  1.291100e+01    3.319317e+00
  1.302213e+01    5.835742e+00
  1.313326e+01    1.510152e+01
  1.324438e+01    1.621560e+01
  1.335551e+01    5.447190e+00
  1.346664e+01    3.159660e+00
  1.357777e+01    2.555268e+00
  1.368890e+01    2.342665e+00
  1.380003e+01    2.222944e+00
  1.391116e+01    2.112746e+00
  1.402229e+01    2.078023e+00
  1.413342e+01    2.010369e+00
  1.424455e+01    2.037326e+00
  1.435568e+01    1.952699e+00
  1.446680e+01    1.943577e+00
  1.457793e+01    1.922526e+00
  1.468906e+01    1.934421e+00
  1.480019e+01    1.909542e+00
  1.491132e+01    1.972113e+00
  1.502245e+01    2.208196e+00
  1.513358e+01    3.283952e+00
  1.524471e+01    6.067566e+00
  1.535584e+01    5.023788e+00
  1.546697e+01    2.552081e+00
  1.557809e+01    1.954246e+00
  1.568922e+01    1.794439e+00
  1.580035e+01    1.741001e+00
  1.591148e+01    1.693319e+00
  1.602261e+01    1.659133e+00
  1.613374e+01    1.617923e+00
  1.624487e+01    1.600868e+00
  1.635600e+01    1.517875e+00
  1.646713e+01    1.516733e+00
  1.657826e+01    1.482455e+00
  1.668938e+01    1.507874e+00
  1.680051e+01    1.469833e+00
  1.691164e+01    1.481566e+00
  1.702277e+01    1.441608e+00
  1.713390e+01    1.430130e+00
  1.724503e+01    1.389610e+00
  1.735616e+01    1.406580e+00
  1.746729e+01    1.377961e+00
  1.757842e+01    1.350540e+00
  1.768955e+01    1.359855e+00
  1.780067e+01    1.371587e+00
  1.791180e+01    1.332442e+00
  1.802293e+01    1.321302e+00
  1.813406e+01    1.287071e+00
  1.824519e+01    1.254610e+00
  1.835632e+01    1.303832e+00
  1.846745e+01    1.288790e+00
  1.857858e+01    1.276217e+00
  1.868971e+01    1.240676e+00
  1.880084e+01    1.226845e+00
  1.891196e+01    1.224517e+00
  1.902309e+01    1.195098e+00
  1.913422e+01    1.214845e+00
  1.924535e+01    1.196095e+00
  1.935648e+01    1.180793e+00
  1.946761e+01    1.194248e+00
  1.957874e+01    1.145006e+00
  1.968987e+01    1.171052e+00
  1.980100e+01    1.135468e+00
  1.991213e+01    1.144061e+00
  2.002325e+01    1.154855e+00
  2.013438e+01    1.111186e+00
  2.024551e+01    1.110454e+00
  2.035664e+01    1.115087e+00
  2.046777e+01    1.109313e+00
  2.057890e+01    1.087443e+00
  2.069003e+01    1.090394e+00
  2.080116e+01    1.085848e+00
  2.091229e+01    1.085642e+00
  2.102342e+01    1.084046e+00
  2.113455e+01    1.124015e+00
  2.124567e+01    1.120002e+00
  2.135680e+01    1.152861e+00
  2.146793e+01    1.252345e+00
  2.157906e+01    1.455254e+00
  2.169019e+01    2.140293e+00
  2.180132e+01    4.869095e+00
  2.191245e+01    1.055734e+01
  2.202358e+01    6.037788e+00
  2.213471e+01    2.340680e+00
  2.224584e+01    1.487505e+00
  2.235696e+01    1.190693e+00
  2.246809e+01    1.103628e+00
  2.257922e+01    1.030921e+00
  2.269035e+01    9.962169e-01
  2.280148e+01    9.551381e-01
  2.291261e+01    9.613854e-01
  2.302374e+01    8.837470e-01
  2.313487e+01    9.306366e-01
  2.324600e+01    8.972216e-01
  2.335713e+01    8.702673e-01
  2.346825e+01    8.827998e-01
  2.357938e+01    8.672429e-01
  2.369051e+01    8.526288e-01
  2.380164e+01    8.372142e-01
  2.391277e+01    7.891669e-01
  2.402390e+01    8.105977e-01
  2.413503e+01    8.018237e-01
  2.424616e+01    7.830498e-01
  2.435729e+01    8.186027e-01
  2.446842e+01    7.916446e-01
  2.457954e+01    7.981195e-01
  2.469067e+01    8.110077e-01
  2.480180e+01    7.907200e-01
  2.491293e+01    8.092486e-01
  2.502406e+01    8.274609e-01
  2.513519e+01    8.273479e-01
  2.524632e+01    8.410977e-01
  2.535745e+01    9.194478e-01
  2.546858e+01    9.584984e-01
  2.557971e+01    1.038858e+00
  2.569083e+01    1.303910e+00
  2.580196e+01    2.233673e+00
  2.591309e+01    5.552349e+00
  2.602422e+01    8.923809e+00
  2.613535e+01    3.540930e+00
  2.624648e+01    1.676280e+00
  2.635761e+01    1.188272e+00
  2.646874e+01    1.028928e+00
  2.657987e+01    9.502346e-01
  2.669100e+01    9.119689e-01
  2.680212e+01    9.347818e-01
  2.691325e+01    9.546400e-01
  2.702438e+01    1.027085e+00
  2.713551e+01    1.430011e+00
  2.724664e+01    2.509133e+00
  2.735777e+01    1.770208e+00
  2.746890e+01    1.084123e+00
  2.758003e+01    9.184467e-01
  2.769116e+01    8.664277e-01
  2.780229e+01    8.328144e-01
  2.791342e+01    8.229488e-01
  2.802454e+01    8.159723e-01
  2.813567e+01    8.049083e-01
  2.824680e+01    7.834479e-01
  2.835793e+01    8.019118e-01
  2.846906e+01    7.945632e-01
  2.858019e+01    7.775863e-01
  2.869132e+01    7.768553e-01
  2.880245e+01    7.713516e-01
  2.891358e+01    7.672465e-01
  2.902471e+01    7.450057e-01
  2.913583e+01    7.644188e-01
  2.924696e+01    7.433860e-01
  2.935809e+01    7.375289e-01
  2.946922e+01    7.510235e-01
  2.958035e+01    7.359052e-01
  2.969148e+01    7.424977e-01
  2.980261e+01    7.524297e-01
  2.991374e+01    7.205010e-01
  3.002487e+01    7.592033e-01
  3.013600e+01    7.260314e-01
  3.024712e+01    7.289078e-01
  3.035825e+01    7.255686e-01
  3.046938e+01    7.161562e-01
  3.058051e+01    7.039785e-01
  3.069164e+01    7.307857e-01
  3.080277e+01    7.136225e-01
  3.091390e+01    7.410737e-01
  3.102503e+01    7.304181e-01
  3.113616e+01    7.329043e-01
  3.124729e+01    7.576132e-01
  3.135841e+01    7.619654e-01
  3.146954e+01    7.436824e-01
  3.158067e+01    7.736943e-01
  3.169180e+01    8.830175e-01
  3.180293e+01    1.203471e+00
  3.191406e+01    2.232703e+00
  3.202519e+01    2.153595e+00
  3.213632e+01    1.105322e+00
  3.224745e+01    8.539145e-01
  3.235858e+01    7.815387e-01
  3.246970e+01    7.599046e-01
  3.254908e+01    7.440042e-01