File: XRD/2024-07-27_002_Ru-CGO-ex_Activtation_ramp_000002_data_000169.dat
# == pyFAI calibration ==
# Distance Sample to Detector: 0.4 m
# PONI: 9.750e-02, 1.135e-01 m
# Rotations: -0.000175 0.000000 -0.000000 rad
#
# == Fit2d calibration ==
# Distance Sample-beamCenter: 400.000 mm
# Center: x=1514.000, y=1300.000 pix
# Tilt: 0.010 deg  TiltPlanRot: 0.010 deg
#
# Detector Detector	 Spline= None	 PixelSize= 7.500e-05, 7.500e-05 m
#    Detector has a mask: False
#    Detector has a dark current: False
#    detector has a flat field: False
#
# Wavelength: 6.888e-11 m
# Mask applied: user provided
# Dark current applied: False
# Flat field applied: False
# Polarization factor: 0.99
# Normalization factor: 1.0
# --> /home/myspot/data/2024_07_Rosario/Ru-CGO-ex/2024-07-27_002_Ru-CGO-ex_Activtation_ramp_000002_data_000169.dat
#       q_nm^-1             I
  2.003187e-02    0.000000e+00
  1.311609e-01    6.101384e-02
  2.422899e-01    9.115915e-02
  3.534189e-01    5.748650e-02
  4.645479e-01    1.657043e-02
  5.756770e-01    6.019063e-02
  6.868060e-01    4.923010e-02
  7.979350e-01    1.424963e-01
  9.090640e-01    5.983125e-01
  1.020193e+00    1.090256e+00
  1.131322e+00    1.503530e+00
  1.242451e+00    2.160502e+00
  1.353580e+00    2.525155e+00
  1.464709e+00    2.743187e+00
  1.575838e+00    2.815367e+00
  1.686967e+00    2.721635e+00
  1.798096e+00    2.740271e+00
  1.909225e+00    2.693171e+00
  2.020354e+00    2.769169e+00
  2.131483e+00    2.719881e+00
  2.242612e+00    2.719783e+00
  2.353741e+00    2.731109e+00
  2.464870e+00    2.777524e+00
  2.575999e+00    2.698986e+00
  2.687128e+00    2.885299e+00
  2.798257e+00    2.858569e+00
  2.909386e+00    2.895313e+00
  3.020515e+00    2.926962e+00
  3.131644e+00    2.986511e+00
  3.242773e+00    2.913719e+00
  3.353902e+00    2.967414e+00
  3.465031e+00    3.045989e+00
  3.576160e+00    2.965266e+00
  3.687289e+00    3.005205e+00
  3.798418e+00    2.953773e+00
  3.909547e+00    3.087693e+00
  4.020676e+00    3.145056e+00
  4.131806e+00    3.084844e+00
  4.242935e+00    3.062202e+00
  4.354064e+00    3.117522e+00
  4.465193e+00    3.093588e+00
  4.576322e+00    3.062207e+00
  4.687451e+00    3.127467e+00
  4.798580e+00    3.130325e+00
  4.909709e+00    3.118897e+00
  5.020838e+00    3.125765e+00
  5.131967e+00    3.152596e+00
  5.243096e+00    3.150636e+00
  5.354225e+00    3.166422e+00
  5.465354e+00    3.096763e+00
  5.576483e+00    3.103080e+00
  5.687612e+00    3.041846e+00
  5.798741e+00    3.116480e+00
  5.909870e+00    3.023098e+00
  6.020999e+00    3.012460e+00
  6.132128e+00    3.109634e+00
  6.243257e+00    3.135524e+00
  6.354386e+00    3.002427e+00
  6.465515e+00    3.021233e+00
  6.576644e+00    3.095475e+00
  6.687773e+00    3.009701e+00
  6.798902e+00    3.028443e+00
  6.910031e+00    3.109499e+00
  7.021160e+00    3.059688e+00
  7.132289e+00    3.020779e+00
  7.243418e+00    3.070258e+00
  7.354547e+00    2.962866e+00
  7.465676e+00    2.961678e+00
  7.576805e+00    2.943260e+00
  7.687934e+00    3.005490e+00
  7.799063e+00    2.896721e+00
  7.910192e+00    2.969298e+00
  8.021321e+00    2.858837e+00
  8.132450e+00    2.887813e+00
  8.243579e+00    2.932141e+00
  8.354708e+00    2.888952e+00
  8.465837e+00    2.925771e+00
  8.576966e+00    2.913756e+00
  8.688095e+00    2.940486e+00
  8.799224e+00    2.752022e+00
  8.910353e+00    2.830626e+00
  9.021482e+00    2.856196e+00
  9.132611e+00    2.735247e+00
  9.243740e+00    2.731598e+00
  9.354869e+00    2.803196e+00
  9.465998e+00    2.740351e+00
  9.577127e+00    2.801129e+00
  9.688256e+00    2.791318e+00
  9.799385e+00    2.755777e+00
  9.910514e+00    2.656388e+00
  1.002164e+01    2.723816e+00
  1.013277e+01    2.645367e+00
  1.024390e+01    2.621019e+00
  1.035503e+01    2.659230e+00
  1.046616e+01    2.591094e+00
  1.057729e+01    2.597107e+00
  1.068842e+01    2.632295e+00
  1.079955e+01    2.521906e+00
  1.091068e+01    2.501169e+00
  1.102180e+01    2.544784e+00
  1.113293e+01    2.493466e+00
  1.124406e+01    2.468842e+00
  1.135519e+01    2.408582e+00
  1.146632e+01    2.410491e+00
  1.157745e+01    2.391414e+00
  1.168858e+01    2.353769e+00
  1.179971e+01    2.355211e+00
  1.191084e+01    2.337780e+00
  1.202197e+01    2.317057e+00
  1.213309e+01    2.383733e+00
  1.224422e+01    2.323321e+00
  1.235535e+01    2.336252e+00
  1.246648e+01    2.335869e+00
  1.257761e+01    2.373180e+00
  1.268874e+01    2.445778e+00
  1.279987e+01    2.676448e+00
  1.291100e+01    3.300175e+00
  1.302213e+01    6.247869e+00
  1.313326e+01    1.429775e+01
  1.324438e+01    1.042490e+01
  1.335551e+01    4.137926e+00
  1.346664e+01    2.805312e+00
  1.357777e+01    2.437353e+00
  1.368890e+01    2.232395e+00
  1.380003e+01    2.191864e+00
  1.391116e+01    2.067476e+00
  1.402229e+01    2.118388e+00
  1.413342e+01    1.979174e+00
  1.424455e+01    1.994750e+00
  1.435568e+01    1.972697e+00
  1.446680e+01    1.938656e+00
  1.457793e+01    1.919050e+00
  1.468906e+01    1.925002e+00
  1.480019e+01    1.916034e+00
  1.491132e+01    1.968373e+00
  1.502245e+01    2.279070e+00
  1.513358e+01    3.527992e+00
  1.524471e+01    5.558076e+00
  1.535584e+01    3.514969e+00
  1.546697e+01    2.136758e+00
  1.557809e+01    1.866947e+00
  1.568922e+01    1.774692e+00
  1.580035e+01    1.676886e+00
  1.591148e+01    1.634378e+00
  1.602261e+01    1.581031e+00
  1.613374e+01    1.565056e+00
  1.624487e+01    1.589619e+00
  1.635600e+01    1.548900e+00
  1.646713e+01    1.536418e+00
  1.657826e+01    1.532084e+00
  1.668938e+01    1.465271e+00
  1.680051e+01    1.479318e+00
  1.691164e+01    1.462041e+00
  1.702277e+01    1.433724e+00
  1.713390e+01    1.432536e+00
  1.724503e+01    1.407341e+00
  1.735616e+01    1.386701e+00
  1.746729e+01    1.381902e+00
  1.757842e+01    1.346695e+00
  1.768955e+01    1.356628e+00
  1.780067e+01    1.317515e+00
  1.791180e+01    1.321609e+00
  1.802293e+01    1.310236e+00
  1.813406e+01    1.294196e+00
  1.824519e+01    1.280996e+00
  1.835632e+01    1.267885e+00
  1.846745e+01    1.222732e+00
  1.857858e+01    1.240710e+00
  1.868971e+01    1.224561e+00
  1.880084e+01    1.223117e+00
  1.891196e+01    1.220157e+00
  1.902309e+01    1.217800e+00
  1.913422e+01    1.202322e+00
  1.924535e+01    1.191455e+00
  1.935648e+01    1.159617e+00
  1.946761e+01    1.157006e+00
  1.957874e+01    1.162439e+00
  1.968987e+01    1.121131e+00
  1.980100e+01    1.161750e+00
  1.991213e+01    1.132713e+00
  2.002325e+01    1.098588e+00
  2.013438e+01    1.118907e+00
  2.024551e+01    1.101806e+00
  2.035664e+01    1.070230e+00
  2.046777e+01    1.102035e+00
  2.057890e+01    1.095428e+00
  2.069003e+01    1.075758e+00
  2.080116e+01    1.061569e+00
  2.091229e+01    1.087716e+00
  2.102342e+01    1.062303e+00
  2.113455e+01    1.086517e+00
  2.124567e+01    1.103104e+00
  2.135680e+01    1.168725e+00
  2.146793e+01    1.236394e+00
  2.157906e+01    1.470367e+00
  2.169019e+01    2.411714e+00
  2.180132e+01    5.706388e+00
  2.191245e+01    8.677041e+00
  2.202358e+01    3.380934e+00
  2.213471e+01    1.688293e+00
  2.224584e+01    1.288978e+00
  2.235696e+01    1.094465e+00
  2.246809e+01    1.052494e+00
  2.257922e+01    9.698719e-01
  2.269035e+01    9.392077e-01
  2.280148e+01    9.313653e-01
  2.291261e+01    9.293785e-01
  2.302374e+01    9.014713e-01
  2.313487e+01    8.798723e-01
  2.324600e+01    8.818690e-01
  2.335713e+01    8.459287e-01
  2.346825e+01    8.567923e-01
  2.357938e+01    8.373719e-01
  2.369051e+01    8.192518e-01
  2.380164e+01    8.207804e-01
  2.391277e+01    8.097706e-01
  2.402390e+01    8.022822e-01
  2.413503e+01    7.978708e-01
  2.424616e+01    7.852526e-01
  2.435729e+01    7.656442e-01
  2.446842e+01    7.838298e-01
  2.457954e+01    7.902435e-01
  2.469067e+01    7.923521e-01
  2.480180e+01    7.977204e-01
  2.491293e+01    7.903812e-01
  2.502406e+01    8.031843e-01
  2.513519e+01    8.122523e-01
  2.524632e+01    8.447070e-01
  2.535745e+01    8.849578e-01
  2.546858e+01    9.195601e-01
  2.557971e+01    1.061454e+00
  2.569083e+01    1.427163e+00
  2.580196e+01    2.761907e+00
  2.591309e+01    6.315897e+00
  2.602422e+01    5.280247e+00
  2.613535e+01    2.035144e+00
  2.624648e+01    1.240974e+00
  2.635761e+01    1.019320e+00
  2.646874e+01    9.231760e-01
  2.657987e+01    8.870448e-01
  2.669100e+01    8.891365e-01
  2.680212e+01    8.739495e-01
  2.691325e+01    9.242980e-01
  2.702438e+01    1.045446e+00
  2.713551e+01    1.650333e+00
  2.724664e+01    2.038180e+00
  2.735777e+01    1.196254e+00
  2.746890e+01    9.525053e-01
  2.758003e+01    8.501582e-01
  2.769116e+01    8.372431e-01
  2.780229e+01    8.209560e-01
  2.791342e+01    7.963448e-01
  2.802454e+01    7.783459e-01
  2.813567e+01    7.721095e-01
  2.824680e+01    7.567911e-01
  2.835793e+01    7.529160e-01
  2.846906e+01    7.473403e-01
  2.858019e+01    7.654872e-01
  2.869132e+01    7.574114e-01
  2.880245e+01    7.401937e-01
  2.891358e+01    7.502129e-01
  2.902471e+01    7.489286e-01
  2.913583e+01    7.092942e-01
  2.924696e+01    7.416192e-01
  2.935809e+01    7.231826e-01
  2.946922e+01    7.296194e-01
  2.958035e+01    7.187515e-01
  2.969148e+01    7.247083e-01
  2.980261e+01    7.263514e-01
  2.991374e+01    7.128188e-01
  3.002487e+01    7.206314e-01
  3.013600e+01    7.470708e-01
  3.024712e+01    7.167438e-01
  3.035825e+01    7.250410e-01
  3.046938e+01    6.901039e-01
  3.058051e+01    7.142259e-01
  3.069164e+01    7.079841e-01
  3.080277e+01    6.778049e-01
  3.091390e+01    7.105896e-01
  3.102503e+01    7.214169e-01
  3.113616e+01    7.319105e-01
  3.124729e+01    7.176977e-01
  3.135841e+01    7.299772e-01
  3.146954e+01    7.358216e-01
  3.158067e+01    7.940556e-01
  3.169180e+01    9.561157e-01
  3.180293e+01    1.451534e+00
  3.191406e+01    2.143219e+00
  3.202519e+01    1.243213e+00
  3.213632e+01    8.623893e-01
  3.224745e+01    7.850902e-01
  3.235858e+01    7.404720e-01
  3.246970e+01    7.218583e-01
  3.254908e+01    7.040349e-01