File: XRD/2024-07-27_002_Ru-CGO-ex_Activtation_ramp_000002_data_000033.dat
# == pyFAI calibration ==
# Distance Sample to Detector: 0.4 m
# PONI: 9.750e-02, 1.135e-01 m
# Rotations: -0.000175 0.000000 -0.000000 rad
#
# == Fit2d calibration ==
# Distance Sample-beamCenter: 400.000 mm
# Center: x=1514.000, y=1300.000 pix
# Tilt: 0.010 deg  TiltPlanRot: 0.010 deg
#
# Detector Detector	 Spline= None	 PixelSize= 7.500e-05, 7.500e-05 m
#    Detector has a mask: False
#    Detector has a dark current: False
#    detector has a flat field: False
#
# Wavelength: 6.888e-11 m
# Mask applied: user provided
# Dark current applied: False
# Flat field applied: False
# Polarization factor: 0.99
# Normalization factor: 1.0
# --> /home/myspot/data/2024_07_Rosario/Ru-CGO-ex/2024-07-27_002_Ru-CGO-ex_Activtation_ramp_000002_data_000033.dat
#       q_nm^-1             I
  2.003187e-02    0.000000e+00
  1.311609e-01    5.773170e-02
  2.422899e-01    1.449156e-03
  3.534189e-01    2.265722e-02
  4.645479e-01    1.688405e-02
  5.756770e-01    3.859504e-02
  6.868060e-01    2.828127e-02
  7.979350e-01    1.527538e-01
  9.090640e-01    5.617477e-01
  1.020193e+00    1.172475e+00
  1.131322e+00    1.423697e+00
  1.242451e+00    2.221455e+00
  1.353580e+00    2.604771e+00
  1.464709e+00    2.932208e+00
  1.575838e+00    3.060328e+00
  1.686967e+00    3.067133e+00
  1.798096e+00    2.850807e+00
  1.909225e+00    2.832260e+00
  2.020354e+00    2.681065e+00
  2.131483e+00    2.831944e+00
  2.242612e+00    2.785294e+00
  2.353741e+00    2.851761e+00
  2.464870e+00    2.879519e+00
  2.575999e+00    2.845880e+00
  2.687128e+00    2.723343e+00
  2.798257e+00    2.845191e+00
  2.909386e+00    2.886851e+00
  3.020515e+00    2.816916e+00
  3.131644e+00    2.923778e+00
  3.242773e+00    2.956957e+00
  3.353902e+00    2.968015e+00
  3.465031e+00    3.092457e+00
  3.576160e+00    3.027130e+00
  3.687289e+00    3.071394e+00
  3.798418e+00    2.984480e+00
  3.909547e+00    3.016515e+00
  4.020676e+00    3.012994e+00
  4.131806e+00    3.020794e+00
  4.242935e+00    3.072759e+00
  4.354064e+00    3.131292e+00
  4.465193e+00    3.102786e+00
  4.576322e+00    3.079406e+00
  4.687451e+00    3.112249e+00
  4.798580e+00    3.034715e+00
  4.909709e+00    3.122997e+00
  5.020838e+00    3.101659e+00
  5.131967e+00    3.186738e+00
  5.243096e+00    3.133125e+00
  5.354225e+00    3.189766e+00
  5.465354e+00    3.119280e+00
  5.576483e+00    3.150314e+00
  5.687612e+00    3.169769e+00
  5.798741e+00    3.033909e+00
  5.909870e+00    3.069931e+00
  6.020999e+00    3.031525e+00
  6.132128e+00    3.061462e+00
  6.243257e+00    2.999878e+00
  6.354386e+00    3.013047e+00
  6.465515e+00    2.952602e+00
  6.576644e+00    2.989093e+00
  6.687773e+00    2.963151e+00
  6.798902e+00    3.057109e+00
  6.910031e+00    2.950290e+00
  7.021160e+00    3.053508e+00
  7.132289e+00    3.004677e+00
  7.243418e+00    2.978028e+00
  7.354547e+00    2.985319e+00
  7.465676e+00    2.981441e+00
  7.576805e+00    2.936741e+00
  7.687934e+00    2.969635e+00
  7.799063e+00    2.954779e+00
  7.910192e+00    2.914874e+00
  8.021321e+00    2.905158e+00
  8.132450e+00    2.996381e+00
  8.243579e+00    2.955503e+00
  8.354708e+00    2.913029e+00
  8.465837e+00    2.871489e+00
  8.576966e+00    2.853632e+00
  8.688095e+00    2.936444e+00
  8.799224e+00    2.800122e+00
  8.910353e+00    2.828736e+00
  9.021482e+00    2.818802e+00
  9.132611e+00    2.789760e+00
  9.243740e+00    2.787648e+00
  9.354869e+00    2.746933e+00
  9.465998e+00    2.753554e+00
  9.577127e+00    2.790090e+00
  9.688256e+00    2.795852e+00
  9.799385e+00    2.783286e+00
  9.910514e+00    2.651529e+00
  1.002164e+01    2.684967e+00
  1.013277e+01    2.684470e+00
  1.024390e+01    2.624160e+00
  1.035503e+01    2.619533e+00
  1.046616e+01    2.602868e+00
  1.057729e+01    2.629926e+00
  1.068842e+01    2.608775e+00
  1.079955e+01    2.556105e+00
  1.091068e+01    2.480407e+00
  1.102180e+01    2.488983e+00
  1.113293e+01    2.490993e+00
  1.124406e+01    2.489016e+00
  1.135519e+01    2.467690e+00
  1.146632e+01    2.408687e+00
  1.157745e+01    2.407232e+00
  1.168858e+01    2.395151e+00
  1.179971e+01    2.383682e+00
  1.191084e+01    2.342193e+00
  1.202197e+01    2.347923e+00
  1.213309e+01    2.345970e+00
  1.224422e+01    2.293855e+00
  1.235535e+01    2.363390e+00
  1.246648e+01    2.344549e+00
  1.257761e+01    2.381114e+00
  1.268874e+01    2.494736e+00
  1.279987e+01    2.706424e+00
  1.291100e+01    3.343280e+00
  1.302213e+01    5.945671e+00
  1.313326e+01    1.512406e+01
  1.324438e+01    1.575219e+01
  1.335551e+01    5.313182e+00
  1.346664e+01    3.149796e+00
  1.357777e+01    2.561919e+00
  1.368890e+01    2.339139e+00
  1.380003e+01    2.196271e+00
  1.391116e+01    2.134867e+00
  1.402229e+01    2.078818e+00
  1.413342e+01    2.065525e+00
  1.424455e+01    1.988506e+00
  1.435568e+01    1.979290e+00
  1.446680e+01    1.937620e+00
  1.457793e+01    1.943885e+00
  1.468906e+01    1.959805e+00
  1.480019e+01    1.935676e+00
  1.491132e+01    1.981058e+00
  1.502245e+01    2.193412e+00
  1.513358e+01    3.266398e+00
  1.524471e+01    6.008218e+00
  1.535584e+01    4.926429e+00
  1.546697e+01    2.400520e+00
  1.557809e+01    1.960312e+00
  1.568922e+01    1.825994e+00
  1.580035e+01    1.688448e+00
  1.591148e+01    1.656116e+00
  1.602261e+01    1.578215e+00
  1.613374e+01    1.584770e+00
  1.624487e+01    1.547262e+00
  1.635600e+01    1.577527e+00
  1.646713e+01    1.545298e+00
  1.657826e+01    1.510940e+00
  1.668938e+01    1.485175e+00
  1.680051e+01    1.478426e+00
  1.691164e+01    1.453023e+00
  1.702277e+01    1.488698e+00
  1.713390e+01    1.441504e+00
  1.724503e+01    1.455182e+00
  1.735616e+01    1.391369e+00
  1.746729e+01    1.382497e+00
  1.757842e+01    1.391992e+00
  1.768955e+01    1.367251e+00
  1.780067e+01    1.321944e+00
  1.791180e+01    1.304564e+00
  1.802293e+01    1.328846e+00
  1.813406e+01    1.296143e+00
  1.824519e+01    1.269520e+00
  1.835632e+01    1.287506e+00
  1.846745e+01    1.263587e+00
  1.857858e+01    1.265014e+00
  1.868971e+01    1.263914e+00
  1.880084e+01    1.183292e+00
  1.891196e+01    1.236583e+00
  1.902309e+01    1.202090e+00
  1.913422e+01    1.218176e+00
  1.924535e+01    1.187689e+00
  1.935648e+01    1.195377e+00
  1.946761e+01    1.191521e+00
  1.957874e+01    1.194971e+00
  1.968987e+01    1.152207e+00
  1.980100e+01    1.171038e+00
  1.991213e+01    1.141200e+00
  2.002325e+01    1.108266e+00
  2.013438e+01    1.108724e+00
  2.024551e+01    1.107340e+00
  2.035664e+01    1.114416e+00
  2.046777e+01    1.099719e+00
  2.057890e+01    1.103849e+00
  2.069003e+01    1.097233e+00
  2.080116e+01    1.097785e+00
  2.091229e+01    1.090321e+00
  2.102342e+01    1.078906e+00
  2.113455e+01    1.113605e+00
  2.124567e+01    1.110258e+00
  2.135680e+01    1.189250e+00
  2.146793e+01    1.230678e+00
  2.157906e+01    1.444656e+00
  2.169019e+01    2.128701e+00
  2.180132e+01    4.942800e+00
  2.191245e+01    1.051926e+01
  2.202358e+01    5.849442e+00
  2.213471e+01    2.293149e+00
  2.224584e+01    1.497110e+00
  2.235696e+01    1.210299e+00
  2.246809e+01    1.068290e+00
  2.257922e+01    1.032161e+00
  2.269035e+01    1.005211e+00
  2.280148e+01    9.516508e-01
  2.291261e+01    9.144828e-01
  2.302374e+01    9.256338e-01
  2.313487e+01    9.148690e-01
  2.324600e+01    8.688625e-01
  2.335713e+01    8.688350e-01
  2.346825e+01    8.580600e-01
  2.357938e+01    8.577858e-01
  2.369051e+01    8.545125e-01
  2.380164e+01    8.282611e-01
  2.391277e+01    8.104950e-01
  2.402390e+01    7.900850e-01
  2.413503e+01    8.029312e-01
  2.424616e+01    8.049587e-01
  2.435729e+01    8.041859e-01
  2.446842e+01    7.995279e-01
  2.457954e+01    8.050888e-01
  2.469067e+01    7.957630e-01
  2.480180e+01    8.050817e-01
  2.491293e+01    8.233274e-01
  2.502406e+01    8.012834e-01
  2.513519e+01    8.204559e-01
  2.524632e+01    8.560832e-01
  2.535745e+01    8.880221e-01
  2.546858e+01    9.489806e-01
  2.557971e+01    1.053455e+00
  2.569083e+01    1.340101e+00
  2.580196e+01    2.285004e+00
  2.591309e+01    5.668472e+00
  2.602422e+01    8.757363e+00
  2.613535e+01    3.416008e+00
  2.624648e+01    1.650373e+00
  2.635761e+01    1.167743e+00
  2.646874e+01    9.980009e-01
  2.657987e+01    9.492220e-01
  2.669100e+01    9.381942e-01
  2.680212e+01    9.583228e-01
  2.691325e+01    9.472450e-01
  2.702438e+01    1.044664e+00
  2.713551e+01    1.507474e+00
  2.724664e+01    2.531867e+00
  2.735777e+01    1.776820e+00
  2.746890e+01    1.116644e+00
  2.758003e+01    9.232977e-01
  2.769116e+01    8.609816e-01
  2.780229e+01    8.405471e-01
  2.791342e+01    8.215396e-01
  2.802454e+01    7.906869e-01
  2.813567e+01    8.092390e-01
  2.824680e+01    7.990191e-01
  2.835793e+01    7.962177e-01
  2.846906e+01    7.787324e-01
  2.858019e+01    7.689634e-01
  2.869132e+01    7.801788e-01
  2.880245e+01    7.492765e-01
  2.891358e+01    7.429374e-01
  2.902471e+01    7.953554e-01
  2.913583e+01    7.475865e-01
  2.924696e+01    7.408626e-01
  2.935809e+01    7.568747e-01
  2.946922e+01    7.319814e-01
  2.958035e+01    7.194973e-01
  2.969148e+01    7.380079e-01
  2.980261e+01    7.351211e-01
  2.991374e+01    7.401566e-01
  3.002487e+01    7.369950e-01
  3.013600e+01    7.238841e-01
  3.024712e+01    7.160700e-01
  3.035825e+01    7.185137e-01
  3.046938e+01    7.277496e-01
  3.058051e+01    7.088022e-01
  3.069164e+01    7.299160e-01
  3.080277e+01    7.361426e-01
  3.091390e+01    7.258907e-01
  3.102503e+01    7.348141e-01
  3.113616e+01    7.150969e-01
  3.124729e+01    7.618626e-01
  3.135841e+01    7.411536e-01
  3.146954e+01    7.726213e-01
  3.158067e+01    8.236470e-01
  3.169180e+01    9.211041e-01
  3.180293e+01    1.216946e+00
  3.191406e+01    2.306440e+00
  3.202519e+01    2.071834e+00
  3.213632e+01    1.103968e+00
  3.224745e+01    8.676669e-01
  3.235858e+01    7.809842e-01
  3.246970e+01    7.471142e-01
  3.254908e+01    7.445855e-01