File: XRD/cleaned_data.txt
q_nm^-1             I
2.003187e-02    0.000000e+00
1.311609e-01    1.090536e+00
2.422899e-01    0.000000e+00
3.534189e-01    6.886068e-03
4.645479e-01    0.000000e+00
5.756770e-01    1.105064e-03
6.868060e-01    3.830001e-03
7.979350e-01    2.867563e-04
9.090640e-01    4.256580e-02
1.020193e+00    4.985080e-02
1.131322e+00    6.075411e-02
1.242451e+00    8.820870e-02
1.353580e+00    1.559901e-01
1.464709e+00    2.102404e-01
1.575838e+00    1.579214e-01
1.686967e+00    1.452238e-01
1.798096e+00    1.351224e-01
1.909225e+00    1.127053e-01
2.020354e+00    1.010980e-01
2.131483e+00    1.179661e-01
2.242612e+00    8.494327e-02
2.353741e+00    1.199755e-01
2.464870e+00    1.097594e-01
2.575999e+00    1.082163e-01
2.687128e+00    1.083042e-01
2.798257e+00    9.826612e-02
2.909386e+00    1.158658e-01
3.020515e+00    1.107866e-01
3.131644e+00    1.111076e-01
3.242773e+00    1.156587e-01
3.353902e+00    1.109334e-01
3.465031e+00    9.043703e-02
3.576160e+00    1.007433e-01
3.687289e+00    1.140232e-01
3.798418e+00    1.010805e-01
3.909547e+00    1.016936e-01
4.020676e+00    1.226720e-01
4.131806e+00    9.382158e-02
4.242935e+00    1.084262e-01
4.354064e+00    1.119323e-01
4.465193e+00    8.774199e-02
4.576322e+00    1.073368e-01
4.687451e+00    1.061221e-01
4.798580e+00    1.139857e-01
4.909709e+00    1.290296e-01
5.020838e+00    1.163304e-01
5.131967e+00    1.335112e-01
5.243096e+00    1.166002e-01
5.354225e+00    1.038460e-01
5.465354e+00    1.105825e-01
5.576483e+00    1.135817e-01
5.687612e+00    1.085524e-01
5.798741e+00    1.178377e-01
5.909870e+00    1.082438e-01
6.020999e+00    1.116611e-01
6.132128e+00    1.174677e-01
6.243257e+00    1.309247e-01
6.354386e+00    1.067118e-01
6.465515e+00    1.053573e-01
6.576644e+00    1.316248e-01
6.687773e+00    1.263712e-01
6.798902e+00    1.200198e-01
6.910031e+00    1.110475e-01
7.021160e+00    1.082104e-01
7.132289e+00    1.362339e-01
7.243418e+00    1.219821e-01
7.354547e+00    1.106960e-01
7.465676e+00    1.120973e-01
7.576805e+00    1.024669e-01
7.687934e+00    1.127809e-01
7.799063e+00    1.160957e-01
7.910192e+00    1.093896e-01
8.021321e+00    1.119174e-01
8.132450e+00    1.155359e-01
8.243579e+00    1.130660e-01
8.354708e+00    1.057382e-01
8.465837e+00    1.215920e-01
8.576966e+00    1.099103e-01
8.688095e+00    1.132922e-01
8.799224e+00    9.468707e-02
8.910353e+00    9.466127e-02
9.021482e+00    1.100826e-01
9.132611e+00    9.575132e-02
9.243740e+00    9.561935e-02
9.354869e+00    9.027625e-02
9.465998e+00    9.671751e-02
9.577127e+00    1.041572e-01
9.688256e+00    1.069741e-01
9.799385e+00    1.089401e-01
9.910514e+00    1.089646e-01
1.002164e+01    1.149660e-01
1.013277e+01    1.259765e-01
1.024390e+01    1.430834e-01
1.035503e+01    1.766230e-01
1.046616e+01    3.501049e-01
1.057729e+01    1.259542e+00
1.068842e+01    2.915207e+00
1.079955e+01    1.649243e+00
1.091068e+01    4.247349e-01
1.102180e+01    2.242311e-01
1.113293e+01    1.714173e-01
1.124406e+01    1.444902e-01
1.135519e+01    1.273669e-01
1.146632e+01    1.125035e-01
1.157745e+01    1.129288e-01
1.168858e+01    1.078153e-01
1.179971e+01    1.013777e-01
1.191084e+01    1.098240e-01
1.202197e+01    1.143708e-01
1.213309e+01    1.518327e-01
1.224422e+01    3.483970e-01
1.235535e+01    8.397898e-01
1.246648e+01    6.589446e-01
1.257761e+01    2.079924e-01
1.268874e+01    1.391707e-01
1.279987e+01    9.979842e-02
1.291100e+01    8.749629e-02
1.302213e+01    8.393604e-02
1.313326e+01    7.952043e-02
1.324438e+01    7.886650e-02
1.335551e+01    7.946542e-02
1.346664e+01    8.159772e-02
1.357777e+01    7.752703e-02
1.368890e+01    7.384857e-02
1.380003e+01    7.117517e-02
1.391116e+01    7.088847e-02
1.402229e+01    7.947965e-02
1.413342e+01    6.512291e-02
1.424455e+01    6.036225e-02
1.435568e+01    6.283303e-02
1.446680e+01    6.125472e-02
1.457793e+01    7.050164e-02
1.468906e+01    6.581552e-02
1.480019e+01    7.299864e-02
1.491132e+01    6.188445e-02
1.502245e+01    6.657518e-02
1.513358e+01    6.583604e-02
1.524471e+01    6.633501e-02
1.535584e+01    6.237684e-02
1.546697e+01    5.872892e-02
1.557809e+01    5.746544e-02
1.568922e+01    6.023959e-02
1.580035e+01    6.379512e-02
1.591148e+01    6.387105e-02
1.602261e+01    6.545092e-02
1.613374e+01    6.490193e-02
1.624487e+01    6.158472e-02
1.635600e+01    5.907603e-02
1.646713e+01    5.661838e-02
1.657826e+01    6.163668e-02
1.668938e+01    7.380591e-02
1.680051e+01    7.085104e-02
1.691164e+01    6.255945e-02
1.702277e+01    7.194991e-02
1.713390e+01    8.696450e-02
1.724503e+01    9.717786e-02
1.735616e+01    1.116749e-01
1.746729e+01    2.421118e-01
1.757842e+01    8.699508e-01
1.768955e+01    1.767392e+00
1.780067e+01    7.199541e-01
1.791180e+01    2.560135e-01
1.802293e+01    1.383641e-01
1.813406e+01    9.946531e-02
1.824519e+01    8.612218e-02
1.835632e+01    8.549417e-02
1.846745e+01    6.845170e-02
1.857858e+01    7.333826e-02
1.868971e+01    6.839762e-02
1.880084e+01    6.575316e-02
1.891196e+01    5.683462e-02
1.902309e+01    5.496212e-02
1.913422e+01    5.800091e-02
1.924535e+01    5.037886e-02
1.935648e+01    4.895539e-02
1.946761e+01    5.769994e-02
1.957874e+01    5.236760e-02
1.968987e+01    5.771258e-02
1.980100e+01    5.686905e-02
1.991213e+01    5.644369e-02
2.002325e+01    6.103094e-02
2.013438e+01    6.477514e-02
2.024551e+01    6.892345e-02
2.035664e+01    7.194578e-02
2.046777e+01    8.698033e-02
2.057890e+01    1.162163e-01
2.069003e+01    2.430056e-01
2.080116e+01    8.512121e-01
2.091229e+01    1.499103e+00
2.102342e+01    5.183572e-01
2.113455e+01    2.357424e-01
2.124567e+01    1.271501e-01
2.135680e+01    1.081451e-01
2.146793e+01    9.188909e-02
2.157906e+01    8.909627e-02
2.169019e+01    1.218004e-01
2.180132e+01    2.331296e-01
2.191245e+01    3.298751e-01
2.202358e+01    1.358414e-01
2.213471e+01    8.242883e-02
2.224584e+01    6.425022e-02
2.235696e+01    6.204226e-02
2.246809e+01    5.878298e-02
2.257922e+01    5.504625e-02
2.269035e+01    5.369382e-02
2.280148e+01    4.843904e-02
2.291261e+01    5.154765e-02
2.302374e+01    4.485911e-02
2.313487e+01    5.337355e-02
2.324600e+01    4.935197e-02
2.335713e+01    4.838231e-02
2.346825e+01    4.478042e-02
2.357938e+01    4.475322e-02
2.369051e+01    4.473404e-02
2.380164e+01    3.785958e-02
2.391277e+01    4.185031e-02
2.402390e+01    3.893662e-02
2.413503e+01    4.333946e-02
2.424616e+01    4.572860e-02
2.435729e+01    5.463628e-02
2.446842e+01    6.322723e-02
2.457954e+01    4.493650e-02
2.469067e+01    4.128723e-02
2.480180e+01    4.032890e-02
2.491293e+01    4.558911e-02
2.502406e+01    5.152537e-02
2.513519e+01    4.915906e-02
2.524632e+01    6.621010e-02
2.535745e+01    1.200344e-01
2.546858e+01    2.704419e-01
2.557971e+01    2.234287e-01
2.569083e+01    9.480833e-02
2.580196e+01    6.294476e-02
2.591309e+01    5.642258e-02
2.602422e+01    5.161269e-02
2.613535e+01    4.923145e-02
2.624648e+01    4.572653e-02
2.635761e+01    5.022923e-02
2.646874e+01    4.815394e-02
2.657987e+01    4.883567e-02
2.669100e+01    5.173471e-02
2.680212e+01    4.512792e-02
2.691325e+01    4.490446e-02
2.702438e+01    5.172017e-02
2.713551e+01    5.349307e-02
2.724664e+01    4.989370e-02
2.735777e+01    5.023655e-02
2.746890e+01    5.523247e-02
2.758003e+01    5.631832e-02
2.769116e+01    8.113519e-02
2.780229e+01    1.240487e-01
2.791342e+01    3.339850e-01
2.802454e+01    6.229321e-01
2.813567e+01    2.890776e-01
2.824680e+01    1.362195e-01
2.835793e+01    9.979941e-02
2.846906e+01    8.298883e-02
2.858019e+01    1.065632e-01
2.869132e+01    2.214590e-01
2.880245e+01    4.613424e-01
2.891358e+01    2.573444e-01
2.902471e+01    1.196228e-01
2.913583e+01    8.944438e-02
2.924696e+01    7.868592e-02
2.935809e+01    6.883752e-02
2.946922e+01    6.151285e-02
2.958035e+01    6.161433e-02
2.969148e+01    6.140757e-02
2.980261e+01    5.135847e-02
2.991374e+01    4.694406e-02
3.002487e+01    5.122773e-02
3.013600e+01    5.388915e-02
3.024712e+01    5.384318e-02
3.035825e+01    4.670475e-02
3.046938e+01    4.921560e-02
3.058051e+01    5.437143e-02
3.069164e+01    5.081599e-02
3.080277e+01    5.135991e-02
3.091390e+01    4.908136e-02
3.102503e+01    5.131151e-02
3.113616e+01    5.066967e-02
3.124729e+01    5.526970e-02
3.135841e+01    5.818165e-02
3.146954e+01    6.652873e-02
3.158067e+01    7.753903e-02
3.169180e+01    1.406697e-01
3.180293e+01    3.791257e-01
3.191406e+01    5.249945e-01
3.202519e+01    2.135983e-01
3.213632e+01    1.270504e-01
3.224745e+01    8.740763e-02
3.235858e+01    6.738553e-02
3.246970e+01    5.673170e-02
3.254908e+01    6.378363e-02